#  E (eV)   dos(E)     Int dos(E) EFermi =   10.775 eV
   0.000  0.0000E+00  0.6000E+02
   0.010  0.0000E+00  0.6000E+02
   0.020  0.0000E+00  0.6000E+02
   0.030  0.0000E+00  0.6000E+02
   0.040  0.0000E+00  0.6000E+02
   0.050  0.0000E+00  0.6000E+02
   0.060  0.0000E+00  0.6000E+02
   0.070  0.0000E+00  0.6000E+02
   0.080  0.0000E+00  0.6000E+02
   0.090  0.0000E+00  0.6000E+02
   0.100  0.0000E+00  0.6000E+02
   0.110  0.0000E+00  0.6000E+02
   0.120  0.0000E+00  0.6000E+02
   0.130  0.0000E+00  0.6000E+02
   0.140  0.0000E+00  0.6000E+02
   0.150  0.0000E+00  0.6000E+02
   0.160  0.0000E+00  0.6000E+02
   0.170  0.0000E+00  0.6000E+02
   0.180  0.0000E+00  0.6000E+02
   0.190  0.0000E+00  0.6000E+02
   0.200  0.0000E+00  0.6000E+02
   0.210  0.0000E+00  0.6000E+02
   0.220  0.0000E+00  0.6000E+02
   0.230  0.0000E+00  0.6000E+02
   0.240  0.0000E+00  0.6000E+02
   0.250  0.0000E+00  0.6000E+02
   0.260  0.0000E+00  0.6000E+02
   0.270  0.0000E+00  0.6000E+02
   0.280  0.0000E+00  0.6000E+02
   0.290  0.0000E+00  0.6000E+02
   0.300  0.0000E+00  0.6000E+02
   0.310  0.0000E+00  0.6000E+02
   0.320  0.0000E+00  0.6000E+02
   0.330  0.0000E+00  0.6000E+02
   0.340  0.0000E+00  0.6000E+02
   0.350  0.0000E+00  0.6000E+02
   0.360  0.0000E+00  0.6000E+02
   0.370  0.0000E+00  0.6000E+02
   0.380  0.0000E+00  0.6000E+02
   0.390  0.0000E+00  0.6000E+02
   0.400  0.0000E+00  0.6000E+02
   0.410  0.0000E+00  0.6000E+02
   0.420  0.0000E+00  0.6000E+02
   0.430  0.0000E+00  0.6000E+02
   0.440  0.0000E+00  0.6000E+02
   0.450  0.0000E+00  0.6000E+02
   0.460  0.0000E+00  0.6000E+02
   0.470  0.0000E+00  0.6000E+02
   0.480  0.0000E+00  0.6000E+02
   0.490  0.0000E+00  0.6000E+02
   0.500  0.0000E+00  0.6000E+02
   0.510  0.0000E+00  0.6000E+02
   0.520  0.0000E+00  0.6000E+02
   0.530  0.0000E+00  0.6000E+02
   0.540  0.0000E+00  0.6000E+02
   0.550  0.0000E+00  0.6000E+02
   0.560  0.0000E+00  0.6000E+02
   0.570  0.0000E+00  0.6000E+02
   0.580  0.0000E+00  0.6000E+02
   0.590  0.0000E+00  0.6000E+02
   0.600  0.0000E+00  0.6000E+02
   0.610  0.0000E+00  0.6000E+02
   0.620  0.0000E+00  0.6000E+02
   0.630  0.0000E+00  0.6000E+02
   0.640  0.0000E+00  0.6000E+02
   0.650  0.0000E+00  0.6000E+02
   0.660  0.0000E+00  0.6000E+02
   0.670  0.0000E+00  0.6000E+02
   0.680  0.0000E+00  0.6000E+02
   0.690  0.0000E+00  0.6000E+02
   0.700  0.0000E+00  0.6000E+02
   0.710  0.0000E+00  0.6000E+02
   0.720  0.0000E+00  0.6000E+02
   0.730  0.0000E+00  0.6000E+02
   0.740  0.0000E+00  0.6000E+02
   0.750  0.0000E+00  0.6000E+02
   0.760  0.0000E+00  0.6000E+02
   0.770  0.0000E+00  0.6000E+02
   0.780  0.0000E+00  0.6000E+02
   0.790  0.0000E+00  0.6000E+02
   0.800  0.0000E+00  0.6000E+02
   0.810  0.0000E+00  0.6000E+02
   0.820  0.0000E+00  0.6000E+02
   0.830  0.0000E+00  0.6000E+02
   0.840  0.0000E+00  0.6000E+02
   0.850  0.0000E+00  0.6000E+02
   0.860  0.0000E+00  0.6000E+02
   0.870  0.0000E+00  0.6000E+02
   0.880  0.0000E+00  0.6000E+02
   0.890  0.0000E+00  0.6000E+02
   0.900  0.0000E+00  0.6000E+02
   0.910  0.0000E+00  0.6000E+02
   0.920  0.0000E+00  0.6000E+02
   0.930  0.0000E+00  0.6000E+02
   0.940  0.0000E+00  0.6000E+02
   0.950  0.0000E+00  0.6000E+02
   0.960  0.0000E+00  0.6000E+02
   0.970  0.0000E+00  0.6000E+02
   0.980  0.0000E+00  0.6000E+02
   0.990  0.0000E+00  0.6000E+02
   1.000  0.0000E+00  0.6000E+02
   1.010  0.0000E+00  0.6000E+02
   1.020  0.0000E+00  0.6000E+02
   1.030  0.0000E+00  0.6000E+02
   1.040  0.0000E+00  0.6000E+02
   1.050  0.0000E+00  0.6000E+02
   1.060  0.0000E+00  0.6000E+02
   1.070  0.0000E+00  0.6000E+02
   1.080  0.0000E+00  0.6000E+02
   1.090  0.0000E+00  0.6000E+02
   1.100  0.0000E+00  0.6000E+02
   1.110  0.0000E+00  0.6000E+02
   1.120  0.0000E+00  0.6000E+02
   1.130  0.0000E+00  0.6000E+02
   1.140  0.0000E+00  0.6000E+02
   1.150  0.0000E+00  0.6000E+02
   1.160  0.0000E+00  0.6000E+02
   1.170  0.0000E+00  0.6000E+02
   1.180  0.0000E+00  0.6000E+02
   1.190  0.0000E+00  0.6000E+02
   1.200  0.0000E+00  0.6000E+02
   1.210  0.0000E+00  0.6000E+02
   1.220  0.0000E+00  0.6000E+02
   1.230  0.0000E+00  0.6000E+02
   1.240  0.0000E+00  0.6000E+02
   1.250  0.0000E+00  0.6000E+02
   1.260  0.0000E+00  0.6000E+02
   1.270  0.0000E+00  0.6000E+02
   1.280  0.0000E+00  0.6000E+02
   1.290  0.0000E+00  0.6000E+02
   1.300  0.0000E+00  0.6000E+02
   1.310  0.0000E+00  0.6000E+02
   1.320  0.0000E+00  0.6000E+02
   1.330  0.0000E+00  0.6000E+02
   1.340  0.0000E+00  0.6000E+02
   1.350  0.0000E+00  0.6000E+02
   1.360  0.0000E+00  0.6000E+02
   1.370  0.0000E+00  0.6000E+02
   1.380  0.0000E+00  0.6000E+02
   1.390  0.0000E+00  0.6000E+02
   1.400  0.0000E+00  0.6000E+02
   1.410  0.0000E+00  0.6000E+02
   1.420  0.0000E+00  0.6000E+02
   1.430  0.0000E+00  0.6000E+02
   1.440  0.0000E+00  0.6000E+02
   1.450  0.0000E+00  0.6000E+02
   1.460  0.0000E+00  0.6000E+02
   1.470  0.0000E+00  0.6000E+02
   1.480  0.0000E+00  0.6000E+02
   1.490  0.0000E+00  0.6000E+02
   1.500  0.0000E+00  0.6000E+02
   1.510  0.0000E+00  0.6000E+02
   1.520  0.0000E+00  0.6000E+02
   1.530  0.0000E+00  0.6000E+02
   1.540  0.0000E+00  0.6000E+02
   1.550  0.0000E+00  0.6000E+02
   1.560  0.0000E+00  0.6000E+02
   1.570  0.0000E+00  0.6000E+02
   1.580  0.0000E+00  0.6000E+02
   1.590  0.0000E+00  0.6000E+02
   1.600  0.0000E+00  0.6000E+02
   1.610  0.0000E+00  0.6000E+02
   1.620  0.0000E+00  0.6000E+02
   1.630  0.0000E+00  0.6000E+02
   1.640  0.0000E+00  0.6000E+02
   1.650  0.0000E+00  0.6000E+02
   1.660  0.0000E+00  0.6000E+02
   1.670  0.0000E+00  0.6000E+02
   1.680  0.0000E+00  0.6000E+02
   1.690  0.0000E+00  0.6000E+02
   1.700  0.0000E+00  0.6000E+02
   1.710  0.0000E+00  0.6000E+02
   1.720  0.0000E+00  0.6000E+02
   1.730  0.0000E+00  0.6000E+02
   1.740  0.0000E+00  0.6000E+02
   1.750  0.0000E+00  0.6000E+02
   1.760  0.0000E+00  0.6000E+02
   1.770  0.0000E+00  0.6000E+02
   1.780  0.0000E+00  0.6000E+02
   1.790  0.0000E+00  0.6000E+02
   1.800  0.0000E+00  0.6000E+02
   1.810  0.0000E+00  0.6000E+02
   1.820  0.0000E+00  0.6000E+02
   1.830  0.0000E+00  0.6000E+02
   1.840  0.0000E+00  0.6000E+02
   1.850  0.0000E+00  0.6000E+02
   1.860  0.0000E+00  0.6000E+02
   1.870  0.0000E+00  0.6000E+02
   1.880  0.0000E+00  0.6000E+02
   1.890  0.0000E+00  0.6000E+02
   1.900  0.0000E+00  0.6000E+02
   1.910  0.0000E+00  0.6000E+02
   1.920  0.0000E+00  0.6000E+02
   1.930  0.0000E+00  0.6000E+02
   1.940  0.0000E+00  0.6000E+02
   1.950  0.0000E+00  0.6000E+02
   1.960  0.0000E+00  0.6000E+02
   1.970  0.0000E+00  0.6000E+02
   1.980  0.0000E+00  0.6000E+02
   1.990  0.0000E+00  0.6000E+02
   2.000  0.0000E+00  0.6000E+02
   2.010  0.0000E+00  0.6000E+02
   2.020  0.0000E+00  0.6000E+02
   2.030  0.0000E+00  0.6000E+02
   2.040  0.0000E+00  0.6000E+02
   2.050  0.0000E+00  0.6000E+02
   2.060  0.0000E+00  0.6000E+02
   2.070  0.0000E+00  0.6000E+02
   2.080  0.0000E+00  0.6000E+02
   2.090  0.0000E+00  0.6000E+02
   2.100  0.0000E+00  0.6000E+02
   2.110  0.0000E+00  0.6000E+02
   2.120  0.0000E+00  0.6000E+02
   2.130  0.0000E+00  0.6000E+02
   2.140  0.0000E+00  0.6000E+02
   2.150  0.0000E+00  0.6000E+02
   2.160  0.0000E+00  0.6000E+02
   2.170  0.0000E+00  0.6000E+02
   2.180  0.0000E+00  0.6000E+02
   2.190  0.0000E+00  0.6000E+02
   2.200  0.0000E+00  0.6000E+02
   2.210  0.0000E+00  0.6000E+02
   2.220  0.0000E+00  0.6000E+02
   2.230  0.0000E+00  0.6000E+02
   2.240  0.0000E+00  0.6000E+02
   2.250  0.0000E+00  0.6000E+02
   2.260  0.0000E+00  0.6000E+02
   2.270  0.0000E+00  0.6000E+02
   2.280  0.0000E+00  0.6000E+02
   2.290  0.0000E+00  0.6000E+02
   2.300  0.0000E+00  0.6000E+02
   2.310  0.0000E+00  0.6000E+02
   2.320  0.0000E+00  0.6000E+02
   2.330  0.0000E+00  0.6000E+02
   2.340  0.0000E+00  0.6000E+02
   2.350  0.0000E+00  0.6000E+02
   2.360  0.0000E+00  0.6000E+02
   2.370  0.0000E+00  0.6000E+02
   2.380  0.0000E+00  0.6000E+02
   2.390  0.0000E+00  0.6000E+02
   2.400  0.0000E+00  0.6000E+02
   2.410  0.0000E+00  0.6000E+02
   2.420  0.0000E+00  0.6000E+02
   2.430  0.0000E+00  0.6000E+02
   2.440  0.0000E+00  0.6000E+02
   2.450  0.0000E+00  0.6000E+02
   2.460  0.0000E+00  0.6000E+02
   2.470  0.0000E+00  0.6000E+02
   2.480  0.0000E+00  0.6000E+02
   2.490  0.0000E+00  0.6000E+02
   2.500  0.0000E+00  0.6000E+02
   2.510  0.0000E+00  0.6000E+02
   2.520  0.0000E+00  0.6000E+02
   2.530  0.0000E+00  0.6000E+02
   2.540  0.0000E+00  0.6000E+02
   2.550  0.0000E+00  0.6000E+02
   2.560  0.0000E+00  0.6000E+02
   2.570  0.0000E+00  0.6000E+02
   2.580  0.0000E+00  0.6000E+02
   2.590  0.0000E+00  0.6000E+02
   2.600  0.0000E+00  0.6000E+02
   2.610  0.0000E+00  0.6000E+02
   2.620  0.0000E+00  0.6000E+02
   2.630  0.0000E+00  0.6000E+02
   2.640  0.0000E+00  0.6000E+02
   2.650  0.0000E+00  0.6000E+02
   2.660  0.0000E+00  0.6000E+02
   2.670  0.0000E+00  0.6000E+02
   2.680  0.0000E+00  0.6000E+02
   2.690  0.0000E+00  0.6000E+02
   2.700  0.0000E+00  0.6000E+02
   2.710  0.0000E+00  0.6000E+02
   2.720  0.0000E+00  0.6000E+02
   2.730  0.0000E+00  0.6000E+02
   2.740  0.0000E+00  0.6000E+02
   2.750  0.0000E+00  0.6000E+02
   2.760  0.0000E+00  0.6000E+02
   2.770  0.0000E+00  0.6000E+02
   2.780  0.0000E+00  0.6000E+02
   2.790  0.0000E+00  0.6000E+02
   2.800  0.0000E+00  0.6000E+02
   2.810  0.0000E+00  0.6000E+02
   2.820  0.0000E+00  0.6000E+02
   2.830  0.0000E+00  0.6000E+02
   2.840  0.0000E+00  0.6000E+02
   2.850  0.0000E+00  0.6000E+02
   2.860  0.0000E+00  0.6000E+02
   2.870  0.0000E+00  0.6000E+02
   2.880  0.0000E+00  0.6000E+02
   2.890  0.0000E+00  0.6000E+02
   2.900  0.0000E+00  0.6000E+02
   2.910  0.0000E+00  0.6000E+02
   2.920  0.0000E+00  0.6000E+02
   2.930  0.0000E+00  0.6000E+02
   2.940  0.0000E+00  0.6000E+02
   2.950  0.0000E+00  0.6000E+02
   2.960  0.0000E+00  0.6000E+02
   2.970  0.0000E+00  0.6000E+02
   2.980  0.0000E+00  0.6000E+02
   2.990  0.0000E+00  0.6000E+02
   3.000  0.0000E+00  0.6000E+02
   3.010  0.0000E+00  0.6000E+02
   3.020  0.0000E+00  0.6000E+02
   3.030  0.0000E+00  0.6000E+02
   3.040  0.0000E+00  0.6000E+02
   3.050  0.0000E+00  0.6000E+02
   3.060  0.0000E+00  0.6000E+02
   3.070  0.0000E+00  0.6000E+02
   3.080  0.0000E+00  0.6000E+02
   3.090  0.0000E+00  0.6000E+02
   3.100  0.0000E+00  0.6000E+02
   3.110  0.0000E+00  0.6000E+02
   3.120  0.0000E+00  0.6000E+02
   3.130  0.0000E+00  0.6000E+02
   3.140  0.0000E+00  0.6000E+02
   3.150  0.0000E+00  0.6000E+02
   3.160  0.0000E+00  0.6000E+02
   3.170  0.0000E+00  0.6000E+02
   3.180  0.0000E+00  0.6000E+02
   3.190  0.0000E+00  0.6000E+02
   3.200  0.0000E+00  0.6000E+02
   3.210  0.0000E+00  0.6000E+02
   3.220  0.0000E+00  0.6000E+02
   3.230  0.0000E+00  0.6000E+02
   3.240  0.0000E+00  0.6000E+02
   3.250  0.0000E+00  0.6000E+02
   3.260  0.0000E+00  0.6000E+02
   3.270  0.0000E+00  0.6000E+02
   3.280  0.0000E+00  0.6000E+02
   3.290  0.0000E+00  0.6000E+02
   3.300  0.0000E+00  0.6000E+02
   3.310  0.0000E+00  0.6000E+02
   3.320  0.0000E+00  0.6000E+02
   3.330  0.0000E+00  0.6000E+02
   3.340  0.0000E+00  0.6000E+02
   3.350  0.0000E+00  0.6000E+02
   3.360  0.0000E+00  0.6000E+02
   3.370  0.0000E+00  0.6000E+02
   3.380  0.0000E+00  0.6000E+02
   3.390  0.0000E+00  0.6000E+02
   3.400  0.0000E+00  0.6000E+02
   3.410  0.0000E+00  0.6000E+02
   3.420  0.0000E+00  0.6000E+02
   3.430  0.0000E+00  0.6000E+02
   3.440  0.0000E+00  0.6000E+02
   3.450  0.0000E+00  0.6000E+02
   3.460  0.0000E+00  0.6000E+02
   3.470  0.0000E+00  0.6000E+02
   3.480  0.0000E+00  0.6000E+02
   3.490  0.0000E+00  0.6000E+02
   3.500  0.0000E+00  0.6000E+02
   3.510  0.0000E+00  0.6000E+02
   3.520  0.0000E+00  0.6000E+02
   3.530  0.0000E+00  0.6000E+02
   3.540  0.0000E+00  0.6000E+02
   3.550  0.0000E+00  0.6000E+02
   3.560  0.0000E+00  0.6000E+02
   3.570  0.0000E+00  0.6000E+02
   3.580  0.0000E+00  0.6000E+02
   3.590  0.0000E+00  0.6000E+02
   3.600  0.0000E+00  0.6000E+02
   3.610  0.0000E+00  0.6000E+02
   3.620  0.0000E+00  0.6000E+02
   3.630  0.0000E+00  0.6000E+02
   3.640  0.0000E+00  0.6000E+02
   3.650  0.1291E+01  0.6001E+02
   3.660  0.1023E+01  0.6002E+02
   3.670  0.1441E+01  0.6003E+02
   3.680  0.3969E+00  0.6004E+02
   3.690  0.4082E+00  0.6004E+02
   3.700  0.4195E+00  0.6005E+02
   3.710  0.4308E+00  0.6005E+02
   3.720  0.4421E+00  0.6006E+02
   3.730  0.4533E+00  0.6006E+02
   3.740  0.4646E+00  0.6007E+02
   3.750  0.4759E+00  0.6007E+02
   3.760  0.4872E+00  0.6007E+02
   3.770  0.4985E+00  0.6008E+02
   3.780  0.5097E+00  0.6008E+02
   3.790  0.5210E+00  0.6009E+02
   3.800  0.5323E+00  0.6010E+02
   3.810  0.5436E+00  0.6010E+02
   3.820  0.5549E+00  0.6011E+02
   3.830  0.5661E+00  0.6011E+02
   3.840  0.5774E+00  0.6012E+02
   3.850  0.5887E+00  0.6012E+02
   3.860  0.6000E+00  0.6013E+02
   3.870  0.6113E+00  0.6014E+02
   3.880  0.6225E+00  0.6014E+02
   3.890  0.6338E+00  0.6015E+02
   3.900  0.6451E+00  0.6015E+02
   3.910  0.6564E+00  0.6016E+02
   3.920  0.6676E+00  0.6017E+02
   3.930  0.6789E+00  0.6017E+02
   3.940  0.6902E+00  0.6018E+02
   3.950  0.7015E+00  0.6019E+02
   3.960  0.7128E+00  0.6019E+02
   3.970  0.7240E+00  0.6020E+02
   3.980  0.7260E+00  0.6021E+02
   3.990  0.7060E+00  0.6022E+02
   4.000  0.6937E+00  0.6022E+02
   4.010  0.6736E+00  0.6023E+02
   4.020  0.6712E+00  0.6024E+02
   4.030  0.6761E+00  0.6024E+02
   4.040  0.6810E+00  0.6025E+02
   4.050  0.6858E+00  0.6026E+02
   4.060  0.6907E+00  0.6026E+02
   4.070  0.6956E+00  0.6027E+02
   4.080  0.7004E+00  0.6028E+02
   4.090  0.7053E+00  0.6029E+02
   4.100  0.7102E+00  0.6029E+02
   4.110  0.7150E+00  0.6030E+02
   4.120  0.7199E+00  0.6031E+02
   4.130  0.7248E+00  0.6031E+02
   4.140  0.7296E+00  0.6032E+02
   4.150  0.7345E+00  0.6033E+02
   4.160  0.7394E+00  0.6034E+02
   4.170  0.7442E+00  0.6034E+02
   4.180  0.7491E+00  0.6035E+02
   4.190  0.7540E+00  0.6036E+02
   4.200  0.7588E+00  0.6037E+02
   4.210  0.1500E+01  0.6038E+02
   4.220  0.1607E+01  0.6039E+02
   4.230  0.1505E+01  0.6041E+02
   4.240  0.1813E+01  0.6042E+02
   4.250  0.1263E+01  0.6045E+02
   4.260  0.1284E+01  0.6046E+02
   4.270  0.1305E+01  0.6047E+02
   4.280  0.1326E+01  0.6048E+02
   4.290  0.1347E+01  0.6050E+02
   4.300  0.1368E+01  0.6051E+02
   4.310  0.1390E+01  0.6053E+02
   4.320  0.1412E+01  0.6054E+02
   4.330  0.1435E+01  0.6055E+02
   4.340  0.1458E+01  0.6057E+02
   4.350  0.1481E+01  0.6058E+02
   4.360  0.1504E+01  0.6060E+02
   4.370  0.1527E+01  0.6061E+02
   4.380  0.1550E+01  0.6063E+02
   4.390  0.1573E+01  0.6064E+02
   4.400  0.1596E+01  0.6066E+02
   4.410  0.1619E+01  0.6068E+02
   4.420  0.1642E+01  0.6069E+02
   4.430  0.1665E+01  0.6071E+02
   4.440  0.1706E+01  0.6073E+02
   4.450  0.1767E+01  0.6074E+02
   4.460  0.1828E+01  0.6076E+02
   4.470  0.1889E+01  0.6078E+02
   4.480  0.1957E+01  0.6080E+02
   4.490  0.2005E+01  0.6082E+02
   4.500  0.2035E+01  0.6084E+02
   4.510  0.2065E+01  0.6086E+02
   4.520  0.2095E+01  0.6088E+02
   4.530  0.2124E+01  0.6090E+02
   4.540  0.2154E+01  0.6092E+02
   4.550  0.2186E+01  0.6094E+02
   4.560  0.2219E+01  0.6097E+02
   4.570  0.2252E+01  0.6099E+02
   4.580  0.2284E+01  0.6101E+02
   4.590  0.2317E+01  0.6103E+02
   4.600  0.2350E+01  0.6106E+02
   4.610  0.2383E+01  0.6108E+02
   4.620  0.2415E+01  0.6110E+02
   4.630  0.2448E+01  0.6113E+02
   4.640  0.2481E+01  0.6115E+02
   4.650  0.2513E+01  0.6118E+02
   4.660  0.2546E+01  0.6120E+02
   4.670  0.2579E+01  0.6123E+02
   4.680  0.2611E+01  0.6126E+02
   4.690  0.2644E+01  0.6128E+02
   4.700  0.2677E+01  0.6131E+02
   4.710  0.2709E+01  0.6134E+02
   4.720  0.3546E+01  0.6137E+02
   4.730  0.3272E+01  0.6140E+02
   4.740  0.4114E+01  0.6145E+02
   4.750  0.3909E+01  0.6149E+02
   4.760  0.3437E+01  0.6153E+02
   4.770  0.2865E+01  0.6157E+02
   4.780  0.2953E+01  0.6160E+02
   4.790  0.3049E+01  0.6163E+02
   4.800  0.3145E+01  0.6166E+02
   4.810  0.3247E+01  0.6169E+02
   4.820  0.3368E+01  0.6172E+02
   4.830  0.3498E+01  0.6176E+02
   4.840  0.3634E+01  0.6179E+02
   4.850  0.3679E+01  0.6183E+02
   4.860  0.3723E+01  0.6186E+02
   4.870  0.3767E+01  0.6190E+02
   4.880  0.3812E+01  0.6194E+02
   4.890  0.3856E+01  0.6198E+02
   4.900  0.4380E+01  0.6202E+02
   4.910  0.4285E+01  0.6207E+02
   4.920  0.4753E+01  0.6212E+02
   4.930  0.4859E+01  0.6217E+02
   4.940  0.3992E+01  0.6221E+02
   4.950  0.4196E+01  0.6226E+02
   4.960  0.3361E+01  0.6230E+02
   4.970  0.3328E+01  0.6233E+02
   4.980  0.3294E+01  0.6236E+02
   4.990  0.3248E+01  0.6240E+02
   5.000  0.3191E+01  0.6243E+02
   5.010  0.3147E+01  0.6246E+02
   5.020  0.3108E+01  0.6249E+02
   5.030  0.3071E+01  0.6252E+02
   5.040  0.3035E+01  0.6255E+02
   5.050  0.2995E+01  0.6258E+02
   5.060  0.2960E+01  0.6261E+02
   5.070  0.2931E+01  0.6264E+02
   5.080  0.2901E+01  0.6267E+02
   5.090  0.2869E+01  0.6270E+02
   5.100  0.2834E+01  0.6273E+02
   5.110  0.2797E+01  0.6276E+02
   5.120  0.2758E+01  0.6279E+02
   5.130  0.2721E+01  0.6281E+02
   5.140  0.2672E+01  0.6284E+02
   5.150  0.2629E+01  0.6287E+02
   5.160  0.2569E+01  0.6289E+02
   5.170  0.2523E+01  0.6292E+02
   5.180  0.2480E+01  0.6294E+02
   5.190  0.2439E+01  0.6297E+02
   5.200  0.2398E+01  0.6299E+02
   5.210  0.2361E+01  0.6302E+02
   5.220  0.2333E+01  0.6304E+02
   5.230  0.2317E+01  0.6306E+02
   5.240  0.2303E+01  0.6309E+02
   5.250  0.2288E+01  0.6311E+02
   5.260  0.2274E+01  0.6313E+02
   5.270  0.2260E+01  0.6315E+02
   5.280  0.3444E+01  0.6319E+02
   5.290  0.3243E+01  0.6322E+02
   5.300  0.3665E+01  0.6325E+02
   5.310  0.2765E+01  0.6329E+02
   5.320  0.2776E+01  0.6331E+02
   5.330  0.2790E+01  0.6334E+02
   5.340  0.2804E+01  0.6337E+02
   5.350  0.2861E+01  0.6340E+02
   5.360  0.2996E+01  0.6343E+02
   5.370  0.3073E+01  0.6346E+02
   5.380  0.3133E+01  0.6349E+02
   5.390  0.3194E+01  0.6352E+02
   5.400  0.3260E+01  0.6355E+02
   5.410  0.3361E+01  0.6359E+02
   5.420  0.3378E+01  0.6362E+02
   5.430  0.3346E+01  0.6365E+02
   5.440  0.3317E+01  0.6369E+02
   5.450  0.3292E+01  0.6372E+02
   5.460  0.3268E+01  0.6375E+02
   5.470  0.4644E+01  0.6383E+02
   5.480  0.4757E+01  0.6387E+02
   5.490  0.4870E+01  0.6392E+02
   5.500  0.4983E+01  0.6397E+02
   5.510  0.5976E+01  0.6403E+02
   5.520  0.7187E+01  0.6413E+02
   5.530  0.8458E+01  0.6421E+02
   5.540  0.8656E+01  0.6429E+02
   5.550  0.1063E+02  0.6439E+02
   5.560  0.1105E+02  0.6450E+02
   5.570  0.1157E+02  0.6461E+02
   5.580  0.3135E+02  0.6492E+02
   5.590  0.1806E+02  0.6513E+02
   5.600  0.1775E+02  0.6531E+02
   5.610  0.1750E+02  0.6548E+02
   5.620  0.1494E+02  0.6565E+02
   5.630  0.1312E+02  0.6579E+02
   5.640  0.1032E+02  0.6590E+02
   5.650  0.1799E+02  0.6601E+02
   5.660  0.1479E+02  0.6617E+02
   5.670  0.1397E+02  0.6633E+02
   5.680  0.1299E+02  0.6646E+02
   5.690  0.1155E+02  0.6659E+02
   5.700  0.1088E+02  0.6669E+02
   5.710  0.1034E+02  0.6680E+02
   5.720  0.9998E+01  0.6690E+02
   5.730  0.9813E+01  0.6700E+02
   5.740  0.1023E+02  0.6711E+02
   5.750  0.9627E+01  0.6721E+02
   5.760  0.8527E+01  0.6731E+02
   5.770  0.8235E+01  0.6739E+02
   5.780  0.7942E+01  0.6747E+02
   5.790  0.5904E+01  0.6757E+02
   5.800  0.7766E+01  0.6764E+02
   5.810  0.8700E+01  0.6773E+02
   5.820  0.7780E+01  0.6781E+02
   5.830  0.8097E+01  0.6789E+02
   5.840  0.8876E+01  0.6797E+02
   5.850  0.9873E+01  0.6806E+02
   5.860  0.2007E+02  0.6820E+02
   5.870  0.1274E+02  0.6834E+02
   5.880  0.1036E+02  0.6846E+02
   5.890  0.9468E+01  0.6856E+02
   5.900  0.8698E+01  0.6865E+02
   5.910  0.8255E+01  0.6873E+02
   5.920  0.7096E+01  0.6881E+02
   5.930  0.7057E+01  0.6888E+02
   5.940  0.7019E+01  0.6895E+02
   5.950  0.8473E+01  0.6903E+02
   5.960  0.8846E+01  0.6912E+02
   5.970  0.9997E+01  0.6921E+02
   5.980  0.9646E+01  0.6931E+02
   5.990  0.9962E+01  0.6941E+02
   6.000  0.1032E+02  0.6951E+02
   6.010  0.1019E+02  0.6962E+02
   6.020  0.1097E+02  0.6972E+02
   6.030  0.1021E+02  0.6983E+02
