#  E (eV)   dos(E)     Int dos(E) EFermi =   10.329 eV
   0.000  0.0000E+00  0.6000E+02
   0.010  0.0000E+00  0.6000E+02
   0.020  0.0000E+00  0.6000E+02
   0.030  0.0000E+00  0.6000E+02
   0.040  0.0000E+00  0.6000E+02
   0.050  0.0000E+00  0.6000E+02
   0.060  0.0000E+00  0.6000E+02
   0.070  0.0000E+00  0.6000E+02
   0.080  0.0000E+00  0.6000E+02
   0.090  0.0000E+00  0.6000E+02
   0.100  0.0000E+00  0.6000E+02
   0.110  0.0000E+00  0.6000E+02
   0.120  0.0000E+00  0.6000E+02
   0.130  0.0000E+00  0.6000E+02
   0.140  0.0000E+00  0.6000E+02
   0.150  0.0000E+00  0.6000E+02
   0.160  0.0000E+00  0.6000E+02
   0.170  0.0000E+00  0.6000E+02
   0.180  0.0000E+00  0.6000E+02
   0.190  0.0000E+00  0.6000E+02
   0.200  0.0000E+00  0.6000E+02
   0.210  0.0000E+00  0.6000E+02
   0.220  0.0000E+00  0.6000E+02
   0.230  0.0000E+00  0.6000E+02
   0.240  0.0000E+00  0.6000E+02
   0.250  0.0000E+00  0.6000E+02
   0.260  0.0000E+00  0.6000E+02
   0.270  0.0000E+00  0.6000E+02
   0.280  0.0000E+00  0.6000E+02
   0.290  0.0000E+00  0.6000E+02
   0.300  0.0000E+00  0.6000E+02
   0.310  0.0000E+00  0.6000E+02
   0.320  0.0000E+00  0.6000E+02
   0.330  0.0000E+00  0.6000E+02
   0.340  0.0000E+00  0.6000E+02
   0.350  0.0000E+00  0.6000E+02
   0.360  0.0000E+00  0.6000E+02
   0.370  0.0000E+00  0.6000E+02
   0.380  0.0000E+00  0.6000E+02
   0.390  0.0000E+00  0.6000E+02
   0.400  0.0000E+00  0.6000E+02
   0.410  0.0000E+00  0.6000E+02
   0.420  0.0000E+00  0.6000E+02
   0.430  0.0000E+00  0.6000E+02
   0.440  0.0000E+00  0.6000E+02
   0.450  0.0000E+00  0.6000E+02
   0.460  0.0000E+00  0.6000E+02
   0.470  0.0000E+00  0.6000E+02
   0.480  0.0000E+00  0.6000E+02
   0.490  0.0000E+00  0.6000E+02
   0.500  0.0000E+00  0.6000E+02
   0.510  0.0000E+00  0.6000E+02
   0.520  0.0000E+00  0.6000E+02
   0.530  0.0000E+00  0.6000E+02
   0.540  0.0000E+00  0.6000E+02
   0.550  0.0000E+00  0.6000E+02
   0.560  0.0000E+00  0.6000E+02
   0.570  0.0000E+00  0.6000E+02
   0.580  0.0000E+00  0.6000E+02
   0.590  0.0000E+00  0.6000E+02
   0.600  0.0000E+00  0.6000E+02
   0.610  0.0000E+00  0.6000E+02
   0.620  0.0000E+00  0.6000E+02
   0.630  0.0000E+00  0.6000E+02
   0.640  0.0000E+00  0.6000E+02
   0.650  0.0000E+00  0.6000E+02
   0.660  0.0000E+00  0.6000E+02
   0.670  0.0000E+00  0.6000E+02
   0.680  0.0000E+00  0.6000E+02
   0.690  0.0000E+00  0.6000E+02
   0.700  0.0000E+00  0.6000E+02
   0.710  0.0000E+00  0.6000E+02
   0.720  0.0000E+00  0.6000E+02
   0.730  0.0000E+00  0.6000E+02
   0.740  0.0000E+00  0.6000E+02
   0.750  0.0000E+00  0.6000E+02
   0.760  0.0000E+00  0.6000E+02
   0.770  0.0000E+00  0.6000E+02
   0.780  0.0000E+00  0.6000E+02
   0.790  0.0000E+00  0.6000E+02
   0.800  0.0000E+00  0.6000E+02
   0.810  0.0000E+00  0.6000E+02
   0.820  0.0000E+00  0.6000E+02
   0.830  0.0000E+00  0.6000E+02
   0.840  0.0000E+00  0.6000E+02
   0.850  0.0000E+00  0.6000E+02
   0.860  0.0000E+00  0.6000E+02
   0.870  0.0000E+00  0.6000E+02
   0.880  0.0000E+00  0.6000E+02
   0.890  0.0000E+00  0.6000E+02
   0.900  0.0000E+00  0.6000E+02
   0.910  0.0000E+00  0.6000E+02
   0.920  0.0000E+00  0.6000E+02
   0.930  0.0000E+00  0.6000E+02
   0.940  0.0000E+00  0.6000E+02
   0.950  0.0000E+00  0.6000E+02
   0.960  0.0000E+00  0.6000E+02
   0.970  0.0000E+00  0.6000E+02
   0.980  0.0000E+00  0.6000E+02
   0.990  0.0000E+00  0.6000E+02
   1.000  0.0000E+00  0.6000E+02
   1.010  0.0000E+00  0.6000E+02
   1.020  0.0000E+00  0.6000E+02
   1.030  0.0000E+00  0.6000E+02
   1.040  0.0000E+00  0.6000E+02
   1.050  0.0000E+00  0.6000E+02
   1.060  0.0000E+00  0.6000E+02
   1.070  0.0000E+00  0.6000E+02
   1.080  0.0000E+00  0.6000E+02
   1.090  0.0000E+00  0.6000E+02
   1.100  0.0000E+00  0.6000E+02
   1.110  0.0000E+00  0.6000E+02
   1.120  0.0000E+00  0.6000E+02
   1.130  0.0000E+00  0.6000E+02
   1.140  0.0000E+00  0.6000E+02
   1.150  0.0000E+00  0.6000E+02
   1.160  0.0000E+00  0.6000E+02
   1.170  0.0000E+00  0.6000E+02
   1.180  0.0000E+00  0.6000E+02
   1.190  0.0000E+00  0.6000E+02
   1.200  0.0000E+00  0.6000E+02
   1.210  0.0000E+00  0.6000E+02
   1.220  0.0000E+00  0.6000E+02
   1.230  0.0000E+00  0.6000E+02
   1.240  0.0000E+00  0.6000E+02
   1.250  0.0000E+00  0.6000E+02
   1.260  0.0000E+00  0.6000E+02
   1.270  0.0000E+00  0.6000E+02
   1.280  0.0000E+00  0.6000E+02
   1.290  0.0000E+00  0.6000E+02
   1.300  0.0000E+00  0.6000E+02
   1.310  0.0000E+00  0.6000E+02
   1.320  0.0000E+00  0.6000E+02
   1.330  0.0000E+00  0.6000E+02
   1.340  0.0000E+00  0.6000E+02
   1.350  0.0000E+00  0.6000E+02
   1.360  0.0000E+00  0.6000E+02
   1.370  0.0000E+00  0.6000E+02
   1.380  0.0000E+00  0.6000E+02
   1.390  0.0000E+00  0.6000E+02
   1.400  0.0000E+00  0.6000E+02
   1.410  0.0000E+00  0.6000E+02
   1.420  0.0000E+00  0.6000E+02
   1.430  0.0000E+00  0.6000E+02
   1.440  0.0000E+00  0.6000E+02
   1.450  0.0000E+00  0.6000E+02
   1.460  0.0000E+00  0.6000E+02
   1.470  0.0000E+00  0.6000E+02
   1.480  0.0000E+00  0.6000E+02
   1.490  0.0000E+00  0.6000E+02
   1.500  0.0000E+00  0.6000E+02
   1.510  0.0000E+00  0.6000E+02
   1.520  0.0000E+00  0.6000E+02
   1.530  0.0000E+00  0.6000E+02
   1.540  0.0000E+00  0.6000E+02
   1.550  0.0000E+00  0.6000E+02
   1.560  0.0000E+00  0.6000E+02
   1.570  0.0000E+00  0.6000E+02
   1.580  0.0000E+00  0.6000E+02
   1.590  0.0000E+00  0.6000E+02
   1.600  0.0000E+00  0.6000E+02
   1.610  0.0000E+00  0.6000E+02
   1.620  0.0000E+00  0.6000E+02
   1.630  0.0000E+00  0.6000E+02
   1.640  0.0000E+00  0.6000E+02
   1.650  0.0000E+00  0.6000E+02
   1.660  0.0000E+00  0.6000E+02
   1.670  0.0000E+00  0.6000E+02
   1.680  0.0000E+00  0.6000E+02
   1.690  0.0000E+00  0.6000E+02
   1.700  0.0000E+00  0.6000E+02
   1.710  0.0000E+00  0.6000E+02
   1.720  0.0000E+00  0.6000E+02
   1.730  0.0000E+00  0.6000E+02
   1.740  0.0000E+00  0.6000E+02
   1.750  0.0000E+00  0.6000E+02
   1.760  0.0000E+00  0.6000E+02
   1.770  0.0000E+00  0.6000E+02
   1.780  0.0000E+00  0.6000E+02
   1.790  0.0000E+00  0.6000E+02
   1.800  0.0000E+00  0.6000E+02
   1.810  0.0000E+00  0.6000E+02
   1.820  0.0000E+00  0.6000E+02
   1.830  0.0000E+00  0.6000E+02
   1.840  0.0000E+00  0.6000E+02
   1.850  0.0000E+00  0.6000E+02
   1.860  0.0000E+00  0.6000E+02
   1.870  0.0000E+00  0.6000E+02
   1.880  0.0000E+00  0.6000E+02
   1.890  0.0000E+00  0.6000E+02
   1.900  0.0000E+00  0.6000E+02
   1.910  0.0000E+00  0.6000E+02
   1.920  0.0000E+00  0.6000E+02
   1.930  0.0000E+00  0.6000E+02
   1.940  0.0000E+00  0.6000E+02
   1.950  0.0000E+00  0.6000E+02
   1.960  0.0000E+00  0.6000E+02
   1.970  0.0000E+00  0.6000E+02
   1.980  0.0000E+00  0.6000E+02
   1.990  0.0000E+00  0.6000E+02
   2.000  0.0000E+00  0.6000E+02
   2.010  0.0000E+00  0.6000E+02
   2.020  0.0000E+00  0.6000E+02
   2.030  0.0000E+00  0.6000E+02
   2.040  0.0000E+00  0.6000E+02
   2.050  0.0000E+00  0.6000E+02
   2.060  0.0000E+00  0.6000E+02
   2.070  0.0000E+00  0.6000E+02
   2.080  0.0000E+00  0.6000E+02
   2.090  0.0000E+00  0.6000E+02
   2.100  0.0000E+00  0.6000E+02
   2.110  0.0000E+00  0.6000E+02
   2.120  0.0000E+00  0.6000E+02
   2.130  0.0000E+00  0.6000E+02
   2.140  0.0000E+00  0.6000E+02
   2.150  0.0000E+00  0.6000E+02
   2.160  0.0000E+00  0.6000E+02
   2.170  0.0000E+00  0.6000E+02
   2.180  0.0000E+00  0.6000E+02
   2.190  0.0000E+00  0.6000E+02
   2.200  0.0000E+00  0.6000E+02
   2.210  0.0000E+00  0.6000E+02
   2.220  0.0000E+00  0.6000E+02
   2.230  0.0000E+00  0.6000E+02
   2.240  0.0000E+00  0.6000E+02
   2.250  0.0000E+00  0.6000E+02
   2.260  0.0000E+00  0.6000E+02
   2.270  0.0000E+00  0.6000E+02
   2.280  0.0000E+00  0.6000E+02
   2.290  0.0000E+00  0.6000E+02
   2.300  0.0000E+00  0.6000E+02
   2.310  0.0000E+00  0.6000E+02
   2.320  0.0000E+00  0.6000E+02
   2.330  0.0000E+00  0.6000E+02
   2.340  0.0000E+00  0.6000E+02
   2.350  0.0000E+00  0.6000E+02
   2.360  0.0000E+00  0.6000E+02
   2.370  0.0000E+00  0.6000E+02
   2.380  0.0000E+00  0.6000E+02
   2.390  0.0000E+00  0.6000E+02
   2.400  0.0000E+00  0.6000E+02
   2.410  0.0000E+00  0.6000E+02
   2.420  0.0000E+00  0.6000E+02
   2.430  0.0000E+00  0.6000E+02
   2.440  0.0000E+00  0.6000E+02
   2.450  0.0000E+00  0.6000E+02
   2.460  0.0000E+00  0.6000E+02
   2.470  0.0000E+00  0.6000E+02
   2.480  0.0000E+00  0.6000E+02
   2.490  0.0000E+00  0.6000E+02
   2.500  0.0000E+00  0.6000E+02
   2.510  0.0000E+00  0.6000E+02
   2.520  0.0000E+00  0.6000E+02
   2.530  0.0000E+00  0.6000E+02
   2.540  0.0000E+00  0.6000E+02
   2.550  0.0000E+00  0.6000E+02
   2.560  0.0000E+00  0.6000E+02
   2.570  0.0000E+00  0.6000E+02
   2.580  0.0000E+00  0.6000E+02
   2.590  0.0000E+00  0.6000E+02
   2.600  0.0000E+00  0.6000E+02
   2.610  0.0000E+00  0.6000E+02
   2.620  0.0000E+00  0.6000E+02
   2.630  0.0000E+00  0.6000E+02
   2.640  0.0000E+00  0.6000E+02
   2.650  0.0000E+00  0.6000E+02
   2.660  0.0000E+00  0.6000E+02
   2.670  0.0000E+00  0.6000E+02
   2.680  0.0000E+00  0.6000E+02
   2.690  0.0000E+00  0.6000E+02
   2.700  0.0000E+00  0.6000E+02
   2.710  0.0000E+00  0.6000E+02
   2.720  0.0000E+00  0.6000E+02
   2.730  0.0000E+00  0.6000E+02
   2.740  0.0000E+00  0.6000E+02
   2.750  0.0000E+00  0.6000E+02
   2.760  0.0000E+00  0.6000E+02
   2.770  0.0000E+00  0.6000E+02
   2.780  0.0000E+00  0.6000E+02
   2.790  0.0000E+00  0.6000E+02
   2.800  0.0000E+00  0.6000E+02
   2.810  0.0000E+00  0.6000E+02
   2.820  0.0000E+00  0.6000E+02
   2.830  0.0000E+00  0.6000E+02
   2.840  0.0000E+00  0.6000E+02
   2.850  0.0000E+00  0.6000E+02
   2.860  0.0000E+00  0.6000E+02
   2.870  0.0000E+00  0.6000E+02
   2.880  0.0000E+00  0.6000E+02
   2.890  0.0000E+00  0.6000E+02
   2.900  0.0000E+00  0.6000E+02
   2.910  0.0000E+00  0.6000E+02
   2.920  0.0000E+00  0.6000E+02
   2.930  0.0000E+00  0.6000E+02
   2.940  0.0000E+00  0.6000E+02
   2.950  0.0000E+00  0.6000E+02
   2.960  0.0000E+00  0.6000E+02
   2.970  0.0000E+00  0.6000E+02
   2.980  0.0000E+00  0.6000E+02
   2.990  0.0000E+00  0.6000E+02
   3.000  0.0000E+00  0.6000E+02
   3.010  0.0000E+00  0.6000E+02
   3.020  0.0000E+00  0.6000E+02
   3.030  0.0000E+00  0.6000E+02
   3.040  0.0000E+00  0.6000E+02
   3.050  0.0000E+00  0.6000E+02
   3.060  0.0000E+00  0.6000E+02
   3.070  0.0000E+00  0.6000E+02
   3.080  0.0000E+00  0.6000E+02
   3.090  0.0000E+00  0.6000E+02
   3.100  0.0000E+00  0.6000E+02
   3.110  0.0000E+00  0.6000E+02
   3.120  0.0000E+00  0.6000E+02
   3.130  0.0000E+00  0.6000E+02
   3.140  0.0000E+00  0.6000E+02
   3.150  0.1188E+01  0.6001E+02
   3.160  0.9429E+00  0.6002E+02
   3.170  0.1319E+01  0.6003E+02
   3.180  0.3870E+00  0.6004E+02
   3.190  0.3979E+00  0.6004E+02
   3.200  0.4088E+00  0.6005E+02
   3.210  0.4197E+00  0.6005E+02
   3.220  0.4306E+00  0.6005E+02
   3.230  0.4415E+00  0.6006E+02
   3.240  0.4524E+00  0.6006E+02
   3.250  0.4633E+00  0.6007E+02
   3.260  0.4742E+00  0.6007E+02
   3.270  0.4851E+00  0.6008E+02
   3.280  0.4960E+00  0.6008E+02
   3.290  0.5069E+00  0.6009E+02
   3.300  0.5178E+00  0.6009E+02
   3.310  0.5287E+00  0.6010E+02
   3.320  0.5396E+00  0.6010E+02
   3.330  0.5505E+00  0.6011E+02
   3.340  0.5614E+00  0.6011E+02
   3.350  0.5723E+00  0.6012E+02
   3.360  0.5832E+00  0.6013E+02
   3.370  0.5941E+00  0.6013E+02
   3.380  0.6050E+00  0.6014E+02
   3.390  0.6159E+00  0.6014E+02
   3.400  0.6268E+00  0.6015E+02
   3.410  0.6377E+00  0.6016E+02
   3.420  0.6486E+00  0.6016E+02
   3.430  0.6595E+00  0.6017E+02
   3.440  0.6704E+00  0.6018E+02
   3.450  0.6813E+00  0.6018E+02
   3.460  0.6922E+00  0.6019E+02
   3.470  0.7031E+00  0.6020E+02
   3.480  0.7140E+00  0.6020E+02
   3.490  0.7065E+00  0.6021E+02
   3.500  0.6925E+00  0.6022E+02
   3.510  0.6811E+00  0.6022E+02
   3.520  0.6633E+00  0.6023E+02
   3.530  0.6615E+00  0.6024E+02
   3.540  0.6663E+00  0.6024E+02
   3.550  0.6710E+00  0.6025E+02
   3.560  0.6758E+00  0.6026E+02
   3.570  0.6805E+00  0.6026E+02
   3.580  0.6853E+00  0.6027E+02
   3.590  0.6900E+00  0.6028E+02
   3.600  0.6948E+00  0.6029E+02
   3.610  0.6996E+00  0.6029E+02
   3.620  0.7043E+00  0.6030E+02
   3.630  0.7091E+00  0.6031E+02
   3.640  0.7138E+00  0.6031E+02
   3.650  0.7186E+00  0.6032E+02
   3.660  0.7233E+00  0.6033E+02
   3.670  0.7281E+00  0.6034E+02
   3.680  0.7328E+00  0.6034E+02
   3.690  0.7376E+00  0.6035E+02
   3.700  0.7423E+00  0.6036E+02
   3.710  0.7471E+00  0.6036E+02
   3.720  0.1487E+01  0.6038E+02
   3.730  0.1405E+01  0.6039E+02
   3.740  0.1481E+01  0.6041E+02
   3.750  0.1778E+01  0.6043E+02
   3.760  0.1247E+01  0.6045E+02
   3.770  0.1267E+01  0.6046E+02
   3.780  0.1287E+01  0.6047E+02
   3.790  0.1307E+01  0.6048E+02
   3.800  0.1327E+01  0.6050E+02
   3.810  0.1347E+01  0.6051E+02
   3.820  0.1368E+01  0.6052E+02
   3.830  0.1389E+01  0.6054E+02
   3.840  0.1411E+01  0.6055E+02
   3.850  0.1433E+01  0.6057E+02
   3.860  0.1455E+01  0.6058E+02
   3.870  0.1478E+01  0.6059E+02
   3.880  0.1500E+01  0.6061E+02
   3.890  0.1522E+01  0.6062E+02
   3.900  0.1544E+01  0.6064E+02
   3.910  0.1566E+01  0.6066E+02
   3.920  0.1589E+01  0.6067E+02
   3.930  0.1611E+01  0.6069E+02
   3.940  0.1633E+01  0.6070E+02
   3.950  0.1655E+01  0.6072E+02
   3.960  0.1708E+01  0.6074E+02
   3.970  0.1776E+01  0.6075E+02
   3.980  0.1833E+01  0.6077E+02
   3.990  0.1893E+01  0.6079E+02
   4.000  0.1949E+01  0.6081E+02
   4.010  0.1991E+01  0.6083E+02
   4.020  0.2021E+01  0.6085E+02
   4.030  0.2051E+01  0.6087E+02
   4.040  0.2080E+01  0.6089E+02
   4.050  0.2109E+01  0.6091E+02
   4.060  0.2139E+01  0.6093E+02
   4.070  0.2171E+01  0.6095E+02
   4.080  0.2203E+01  0.6098E+02
   4.090  0.2235E+01  0.6100E+02
   4.100  0.2267E+01  0.6102E+02
   4.110  0.2298E+01  0.6104E+02
   4.120  0.2330E+01  0.6107E+02
   4.130  0.2362E+01  0.6109E+02
   4.140  0.2394E+01  0.6111E+02
   4.150  0.2426E+01  0.6114E+02
   4.160  0.2458E+01  0.6116E+02
   4.170  0.2490E+01  0.6119E+02
   4.180  0.2521E+01  0.6121E+02
   4.190  0.2553E+01  0.6124E+02
   4.200  0.2585E+01  0.6126E+02
   4.210  0.2617E+01  0.6129E+02
   4.220  0.2649E+01  0.6132E+02
   4.230  0.2681E+01  0.6134E+02
   4.240  0.3490E+01  0.6138E+02
   4.250  0.4001E+01  0.6142E+02
   4.260  0.3730E+01  0.6146E+02
   4.270  0.3823E+01  0.6149E+02
   4.280  0.3368E+01  0.6154E+02
   4.290  0.2884E+01  0.6157E+02
   4.300  0.2936E+01  0.6160E+02
   4.310  0.3049E+01  0.6163E+02
   4.320  0.3141E+01  0.6166E+02
   4.330  0.3242E+01  0.6169E+02
   4.340  0.3395E+01  0.6173E+02
   4.350  0.3478E+01  0.6176E+02
   4.360  0.3601E+01  0.6180E+02
   4.370  0.3644E+01  0.6183E+02
   4.380  0.3687E+01  0.6187E+02
   4.390  0.3730E+01  0.6191E+02
   4.400  0.3773E+01  0.6194E+02
   4.410  0.3816E+01  0.6198E+02
   4.420  0.4293E+01  0.6203E+02
   4.430  0.4207E+01  0.6207E+02
   4.440  0.4630E+01  0.6212E+02
   4.450  0.4731E+01  0.6217E+02
   4.460  0.3904E+01  0.6222E+02
   4.470  0.4096E+01  0.6226E+02
   4.480  0.3298E+01  0.6230E+02
   4.490  0.3266E+01  0.6233E+02
   4.500  0.3234E+01  0.6236E+02
   4.510  0.3190E+01  0.6239E+02
   4.520  0.3137E+01  0.6243E+02
   4.530  0.3095E+01  0.6246E+02
   4.540  0.3059E+01  0.6249E+02
   4.550  0.3025E+01  0.6252E+02
   4.560  0.2991E+01  0.6255E+02
   4.570  0.2953E+01  0.6258E+02
   4.580  0.2918E+01  0.6261E+02
   4.590  0.2891E+01  0.6264E+02
   4.600  0.2862E+01  0.6267E+02
   4.610  0.2832E+01  0.6269E+02
   4.620  0.2801E+01  0.6272E+02
   4.630  0.2766E+01  0.6275E+02
   4.640  0.2728E+01  0.6278E+02
   4.650  0.2691E+01  0.6280E+02
   4.660  0.2644E+01  0.6283E+02
   4.670  0.2602E+01  0.6286E+02
   4.680  0.2545E+01  0.6288E+02
   4.690  0.2500E+01  0.6291E+02
   4.700  0.2458E+01  0.6293E+02
   4.710  0.2420E+01  0.6296E+02
   4.720  0.2380E+01  0.6298E+02
   4.730  0.2340E+01  0.6300E+02
   4.740  0.2306E+01  0.6303E+02
   4.750  0.2292E+01  0.6305E+02
   4.760  0.2279E+01  0.6307E+02
   4.770  0.2267E+01  0.6310E+02
   4.780  0.2255E+01  0.6312E+02
   4.790  0.2244E+01  0.6314E+02
   4.800  0.2232E+01  0.6316E+02
   4.810  0.2221E+01  0.6319E+02
   4.820  0.2209E+01  0.6321E+02
   4.830  0.3300E+01  0.6324E+02
   4.840  0.3139E+01  0.6327E+02
   4.850  0.3532E+01  0.6330E+02
   4.860  0.2789E+01  0.6334E+02
   4.870  0.2912E+01  0.6337E+02
   4.880  0.3032E+01  0.6340E+02
   4.890  0.3116E+01  0.6343E+02
   4.900  0.3185E+01  0.6346E+02
   4.910  0.3256E+01  0.6349E+02
   4.920  0.3333E+01  0.6352E+02
   4.930  0.3451E+01  0.6356E+02
   4.940  0.3471E+01  0.6359E+02
   4.950  0.3432E+01  0.6363E+02
   4.960  0.3395E+01  0.6366E+02
   4.970  0.3359E+01  0.6370E+02
   4.980  0.3327E+01  0.6373E+02
   4.990  0.4460E+01  0.6380E+02
   5.000  0.4536E+01  0.6385E+02
   5.010  0.4612E+01  0.6390E+02
   5.020  0.5493E+01  0.6395E+02
   5.030  0.6452E+01  0.6404E+02
   5.040  0.6745E+01  0.6410E+02
   5.050  0.5836E+01  0.6417E+02
   5.060  0.7897E+01  0.6423E+02
   5.070  0.1097E+02  0.6432E+02
   5.080  0.1346E+02  0.6445E+02
   5.090  0.3568E+02  0.6478E+02
   5.100  0.1870E+02  0.6498E+02
   5.110  0.1848E+02  0.6517E+02
   5.120  0.1770E+02  0.6535E+02
   5.130  0.1485E+02  0.6552E+02
   5.140  0.1744E+02  0.6566E+02
   5.150  0.1017E+02  0.6580E+02
   5.160  0.1394E+02  0.6595E+02
   5.170  0.1349E+02  0.6610E+02
   5.180  0.1236E+02  0.6623E+02
   5.190  0.1167E+02  0.6635E+02
   5.200  0.1075E+02  0.6646E+02
   5.210  0.9401E+01  0.6656E+02
   5.220  0.9208E+01  0.6665E+02
   5.230  0.1044E+02  0.6675E+02
   5.240  0.9012E+01  0.6685E+02
   5.250  0.8704E+01  0.6694E+02
   5.260  0.8496E+01  0.6702E+02
   5.270  0.8350E+01  0.6711E+02
   5.280  0.8213E+01  0.6719E+02
   5.290  0.8741E+01  0.6728E+02
   5.300  0.8289E+01  0.6737E+02
   5.310  0.7292E+01  0.6745E+02
   5.320  0.7171E+01  0.6752E+02
   5.330  0.8379E+01  0.6760E+02
   5.340  0.8352E+01  0.6771E+02
   5.350  0.6666E+01  0.6778E+02
   5.360  0.6880E+01  0.6785E+02
   5.370  0.7175E+01  0.6792E+02
   5.380  0.8117E+01  0.6800E+02
   5.390  0.9748E+01  0.6808E+02
   5.400  0.7974E+01  0.6817E+02
   5.410  0.1500E+02  0.6829E+02
   5.420  0.1218E+02  0.6843E+02
   5.430  0.9872E+01  0.6853E+02
   5.440  0.8899E+01  0.6863E+02
   5.450  0.8344E+01  0.6871E+02
   5.460  0.6700E+01  0.6880E+02
   5.470  0.6671E+01  0.6886E+02
   5.480  0.6643E+01  0.6893E+02
   5.490  0.6615E+01  0.6900E+02
   5.500  0.6599E+01  0.6906E+02
   5.510  0.6615E+01  0.6913E+02
   5.520  0.6629E+01  0.6919E+02
   5.530  0.8296E+01  0.6928E+02
   5.540  0.9025E+01  0.6937E+02
   5.550  0.9424E+01  0.6947E+02
   5.560  0.9715E+01  0.6956E+02
   5.570  0.1149E+02  0.6966E+02
   5.580  0.1132E+02  0.6978E+02
   5.590  0.1081E+02  0.6989E+02
   5.600  0.1219E+02  0.7000E+02
   5.610  0.2371E+02  0.7017E+02
   5.620  0.1168E+02  0.7043E+02
   5.630  0.1393E+02  0.7057E+02
   5.640  0.1452E+02  0.7071E+02
   5.650  0.1367E+02  0.7086E+02
   5.660  0.1443E+02  0.7100E+02
   5.670  0.1882E+02  0.7116E+02
   5.680  0.1750E+02  0.7137E+02
   5.690  0.1396E+02  0.7152E+02
   5.700  0.1354E+02  0.7165E+02
   5.710  0.1310E+02  0.7179E+02
   5.720  0.1264E+02  0.7192E+02
   5.730  0.1272E+02  0.7205E+02
   5.740  0.1196E+02  0.7219E+02
   5.750  0.1103E+02  0.7230E+02
   5.760  0.5632E+01  0.7244E+02
   5.770  0.4884E+01  0.7249E+02
   5.780  0.4136E+01  0.7254E+02
   5.790  0.3322E+01  0.7258E+02
   5.800  0.2284E+01  0.7260E+02
   5.810  0.1608E+01  0.7262E+02
   5.820  0.1405E+01  0.7264E+02
   5.830  0.1406E+01  0.7265E+02
   5.840  0.1406E+01  0.7266E+02
   5.850  0.1406E+01  0.7268E+02
   5.860  0.1406E+01  0.7269E+02
   5.870  0.1406E+01  0.7271E+02
   5.880  0.1406E+01  0.7272E+02
   5.890  0.1750E+01  0.7274E+02
   5.900  0.2382E+01  0.7276E+02
   5.910  0.2562E+01  0.7278E+02
   5.920  0.2743E+01  0.7281E+02
   5.930  0.2924E+01  0.7284E+02
   5.940  0.3105E+01  0.7287E+02
   5.950  0.3285E+01  0.7290E+02
   5.960  0.3466E+01  0.7293E+02
   5.970  0.3647E+01  0.7297E+02
   5.980  0.3824E+01  0.7301E+02
   5.990  0.4011E+01  0.7304E+02
   6.000  0.4534E+01  0.7309E+02
   6.010  0.4961E+01  0.7314E+02
   6.020  0.4980E+01  0.7319E+02
   6.030  0.4999E+01  0.7324E+02
