#  E (eV)   dos(E)     Int dos(E) EFermi =   10.192 eV
   0.000  0.0000E+00  0.3600E+02
   0.010  0.0000E+00  0.3600E+02
   0.020  0.0000E+00  0.3600E+02
   0.030  0.0000E+00  0.3600E+02
   0.040  0.0000E+00  0.3600E+02
   0.050  0.0000E+00  0.3600E+02
   0.060  0.0000E+00  0.3600E+02
   0.070  0.0000E+00  0.3600E+02
   0.080  0.0000E+00  0.3600E+02
   0.090  0.0000E+00  0.3600E+02
   0.100  0.0000E+00  0.3600E+02
   0.110  0.0000E+00  0.3600E+02
   0.120  0.0000E+00  0.3600E+02
   0.130  0.0000E+00  0.3600E+02
   0.140  0.0000E+00  0.3600E+02
   0.150  0.0000E+00  0.3600E+02
   0.160  0.0000E+00  0.3600E+02
   0.170  0.0000E+00  0.3600E+02
   0.180  0.0000E+00  0.3600E+02
   0.190  0.0000E+00  0.3600E+02
   0.200  0.0000E+00  0.3600E+02
   0.210  0.0000E+00  0.3600E+02
   0.220  0.0000E+00  0.3600E+02
   0.230  0.0000E+00  0.3600E+02
   0.240  0.0000E+00  0.3600E+02
   0.250  0.0000E+00  0.3600E+02
   0.260  0.0000E+00  0.3600E+02
   0.270  0.0000E+00  0.3600E+02
   0.280  0.0000E+00  0.3600E+02
   0.290  0.0000E+00  0.3600E+02
   0.300  0.0000E+00  0.3600E+02
   0.310  0.0000E+00  0.3600E+02
   0.320  0.0000E+00  0.3600E+02
   0.330  0.0000E+00  0.3600E+02
   0.340  0.0000E+00  0.3600E+02
   0.350  0.0000E+00  0.3600E+02
   0.360  0.0000E+00  0.3600E+02
   0.370  0.0000E+00  0.3600E+02
   0.380  0.0000E+00  0.3600E+02
   0.390  0.0000E+00  0.3600E+02
   0.400  0.0000E+00  0.3600E+02
   0.410  0.0000E+00  0.3600E+02
   0.420  0.0000E+00  0.3600E+02
   0.430  0.0000E+00  0.3600E+02
   0.440  0.0000E+00  0.3600E+02
   0.450  0.0000E+00  0.3600E+02
   0.460  0.0000E+00  0.3600E+02
   0.470  0.0000E+00  0.3600E+02
   0.480  0.0000E+00  0.3600E+02
   0.490  0.0000E+00  0.3600E+02
   0.500  0.0000E+00  0.3600E+02
   0.510  0.0000E+00  0.3600E+02
   0.520  0.0000E+00  0.3600E+02
   0.530  0.0000E+00  0.3600E+02
   0.540  0.0000E+00  0.3600E+02
   0.550  0.0000E+00  0.3600E+02
   0.560  0.0000E+00  0.3600E+02
   0.570  0.0000E+00  0.3600E+02
   0.580  0.0000E+00  0.3600E+02
   0.590  0.0000E+00  0.3600E+02
   0.600  0.0000E+00  0.3600E+02
   0.610  0.0000E+00  0.3600E+02
   0.620  0.0000E+00  0.3600E+02
   0.630  0.0000E+00  0.3600E+02
   0.640  0.0000E+00  0.3600E+02
   0.650  0.0000E+00  0.3600E+02
   0.660  0.0000E+00  0.3600E+02
   0.670  0.0000E+00  0.3600E+02
   0.680  0.0000E+00  0.3600E+02
   0.690  0.0000E+00  0.3600E+02
   0.700  0.0000E+00  0.3600E+02
   0.710  0.0000E+00  0.3600E+02
   0.720  0.0000E+00  0.3600E+02
   0.730  0.0000E+00  0.3600E+02
   0.740  0.0000E+00  0.3600E+02
   0.750  0.0000E+00  0.3600E+02
   0.760  0.0000E+00  0.3600E+02
   0.770  0.0000E+00  0.3600E+02
   0.780  0.0000E+00  0.3600E+02
   0.790  0.0000E+00  0.3600E+02
   0.800  0.0000E+00  0.3600E+02
   0.810  0.0000E+00  0.3600E+02
   0.820  0.0000E+00  0.3600E+02
   0.830  0.0000E+00  0.3600E+02
   0.840  0.0000E+00  0.3600E+02
   0.850  0.0000E+00  0.3600E+02
   0.860  0.0000E+00  0.3600E+02
   0.870  0.0000E+00  0.3600E+02
   0.880  0.0000E+00  0.3600E+02
   0.890  0.0000E+00  0.3600E+02
   0.900  0.0000E+00  0.3600E+02
   0.910  0.0000E+00  0.3600E+02
   0.920  0.0000E+00  0.3600E+02
   0.930  0.0000E+00  0.3600E+02
   0.940  0.0000E+00  0.3600E+02
   0.950  0.0000E+00  0.3600E+02
   0.960  0.0000E+00  0.3600E+02
   0.970  0.0000E+00  0.3600E+02
   0.980  0.0000E+00  0.3600E+02
   0.990  0.0000E+00  0.3600E+02
   1.000  0.0000E+00  0.3600E+02
   1.010  0.0000E+00  0.3600E+02
   1.020  0.0000E+00  0.3600E+02
   1.030  0.0000E+00  0.3600E+02
   1.040  0.0000E+00  0.3600E+02
   1.050  0.0000E+00  0.3600E+02
   1.060  0.0000E+00  0.3600E+02
   1.070  0.0000E+00  0.3600E+02
   1.080  0.0000E+00  0.3600E+02
   1.090  0.0000E+00  0.3600E+02
   1.100  0.0000E+00  0.3600E+02
   1.110  0.0000E+00  0.3600E+02
   1.120  0.0000E+00  0.3600E+02
   1.130  0.0000E+00  0.3600E+02
   1.140  0.0000E+00  0.3600E+02
   1.150  0.0000E+00  0.3600E+02
   1.160  0.0000E+00  0.3600E+02
   1.170  0.0000E+00  0.3600E+02
   1.180  0.0000E+00  0.3600E+02
   1.190  0.0000E+00  0.3600E+02
   1.200  0.0000E+00  0.3600E+02
   1.210  0.0000E+00  0.3600E+02
   1.220  0.0000E+00  0.3600E+02
   1.230  0.0000E+00  0.3600E+02
   1.240  0.0000E+00  0.3600E+02
   1.250  0.0000E+00  0.3600E+02
   1.260  0.0000E+00  0.3600E+02
   1.270  0.0000E+00  0.3600E+02
   1.280  0.0000E+00  0.3600E+02
   1.290  0.0000E+00  0.3600E+02
   1.300  0.0000E+00  0.3600E+02
   1.310  0.0000E+00  0.3600E+02
   1.320  0.0000E+00  0.3600E+02
   1.330  0.0000E+00  0.3600E+02
   1.340  0.0000E+00  0.3600E+02
   1.350  0.0000E+00  0.3600E+02
   1.360  0.0000E+00  0.3600E+02
   1.370  0.0000E+00  0.3600E+02
   1.380  0.0000E+00  0.3600E+02
   1.390  0.0000E+00  0.3600E+02
   1.400  0.0000E+00  0.3600E+02
   1.410  0.0000E+00  0.3600E+02
   1.420  0.0000E+00  0.3600E+02
   1.430  0.0000E+00  0.3600E+02
   1.440  0.0000E+00  0.3600E+02
   1.450  0.0000E+00  0.3600E+02
   1.460  0.0000E+00  0.3600E+02
   1.470  0.0000E+00  0.3600E+02
   1.480  0.0000E+00  0.3600E+02
   1.490  0.0000E+00  0.3600E+02
   1.500  0.0000E+00  0.3600E+02
   1.510  0.0000E+00  0.3600E+02
   1.520  0.0000E+00  0.3600E+02
   1.530  0.0000E+00  0.3600E+02
   1.540  0.0000E+00  0.3600E+02
   1.550  0.0000E+00  0.3600E+02
   1.560  0.0000E+00  0.3600E+02
   1.570  0.0000E+00  0.3600E+02
   1.580  0.0000E+00  0.3600E+02
   1.590  0.0000E+00  0.3600E+02
   1.600  0.0000E+00  0.3600E+02
   1.610  0.0000E+00  0.3600E+02
   1.620  0.0000E+00  0.3600E+02
   1.630  0.0000E+00  0.3600E+02
   1.640  0.0000E+00  0.3600E+02
   1.650  0.0000E+00  0.3600E+02
   1.660  0.0000E+00  0.3600E+02
   1.670  0.0000E+00  0.3600E+02
   1.680  0.0000E+00  0.3600E+02
   1.690  0.0000E+00  0.3600E+02
   1.700  0.0000E+00  0.3600E+02
   1.710  0.0000E+00  0.3600E+02
   1.720  0.0000E+00  0.3600E+02
   1.730  0.0000E+00  0.3600E+02
   1.740  0.0000E+00  0.3600E+02
   1.750  0.0000E+00  0.3600E+02
   1.760  0.0000E+00  0.3600E+02
   1.770  0.0000E+00  0.3600E+02
   1.780  0.0000E+00  0.3600E+02
   1.790  0.0000E+00  0.3600E+02
   1.800  0.0000E+00  0.3600E+02
   1.810  0.0000E+00  0.3600E+02
   1.820  0.0000E+00  0.3600E+02
   1.830  0.0000E+00  0.3600E+02
   1.840  0.0000E+00  0.3600E+02
   1.850  0.0000E+00  0.3600E+02
   1.860  0.0000E+00  0.3600E+02
   1.870  0.0000E+00  0.3600E+02
   1.880  0.0000E+00  0.3600E+02
   1.890  0.0000E+00  0.3600E+02
   1.900  0.0000E+00  0.3600E+02
   1.910  0.0000E+00  0.3600E+02
   1.920  0.0000E+00  0.3600E+02
   1.930  0.0000E+00  0.3600E+02
   1.940  0.0000E+00  0.3600E+02
   1.950  0.0000E+00  0.3600E+02
   1.960  0.0000E+00  0.3600E+02
   1.970  0.0000E+00  0.3600E+02
   1.980  0.0000E+00  0.3600E+02
   1.990  0.0000E+00  0.3600E+02
   2.000  0.0000E+00  0.3600E+02
   2.010  0.0000E+00  0.3600E+02
   2.020  0.0000E+00  0.3600E+02
   2.030  0.0000E+00  0.3600E+02
   2.040  0.0000E+00  0.3600E+02
   2.050  0.0000E+00  0.3600E+02
   2.060  0.0000E+00  0.3600E+02
   2.070  0.0000E+00  0.3600E+02
   2.080  0.0000E+00  0.3600E+02
   2.090  0.0000E+00  0.3600E+02
   2.100  0.0000E+00  0.3600E+02
   2.110  0.0000E+00  0.3600E+02
   2.120  0.0000E+00  0.3600E+02
   2.130  0.0000E+00  0.3600E+02
   2.140  0.0000E+00  0.3600E+02
   2.150  0.0000E+00  0.3600E+02
   2.160  0.0000E+00  0.3600E+02
   2.170  0.0000E+00  0.3600E+02
   2.180  0.0000E+00  0.3600E+02
   2.190  0.0000E+00  0.3600E+02
   2.200  0.0000E+00  0.3600E+02
   2.210  0.0000E+00  0.3600E+02
   2.220  0.2259E+01  0.3601E+02
   2.230  0.2368E+01  0.3603E+02
   2.240  0.3470E+00  0.3604E+02
   2.250  0.3559E+00  0.3604E+02
   2.260  0.3649E+00  0.3604E+02
   2.270  0.3738E+00  0.3605E+02
   2.280  0.3828E+00  0.3605E+02
   2.290  0.3917E+00  0.3606E+02
   2.300  0.4007E+00  0.3606E+02
   2.310  0.4096E+00  0.3606E+02
   2.320  0.4186E+00  0.3607E+02
   2.330  0.4275E+00  0.3607E+02
   2.340  0.4365E+00  0.3608E+02
   2.350  0.4454E+00  0.3608E+02
   2.360  0.4544E+00  0.3608E+02
   2.370  0.4633E+00  0.3609E+02
   2.380  0.4723E+00  0.3609E+02
   2.390  0.4812E+00  0.3610E+02
   2.400  0.4902E+00  0.3610E+02
   2.410  0.4991E+00  0.3611E+02
   2.420  0.5081E+00  0.3611E+02
   2.430  0.5170E+00  0.3612E+02
   2.440  0.5260E+00  0.3612E+02
   2.450  0.5349E+00  0.3613E+02
   2.460  0.5439E+00  0.3613E+02
   2.470  0.5528E+00  0.3614E+02
   2.480  0.5617E+00  0.3615E+02
   2.490  0.5707E+00  0.3615E+02
   2.500  0.5796E+00  0.3616E+02
   2.510  0.5886E+00  0.3616E+02
   2.520  0.5975E+00  0.3617E+02
   2.530  0.6065E+00  0.3617E+02
   2.540  0.6154E+00  0.3618E+02
   2.550  0.6244E+00  0.3619E+02
   2.560  0.6333E+00  0.3619E+02
   2.570  0.6423E+00  0.3620E+02
   2.580  0.6512E+00  0.3621E+02
   2.590  0.6602E+00  0.3621E+02
   2.600  0.6244E+00  0.3622E+02
   2.610  0.5883E+00  0.3623E+02
   2.620  0.5923E+00  0.3623E+02
   2.630  0.5963E+00  0.3624E+02
   2.640  0.6003E+00  0.3624E+02
   2.650  0.6043E+00  0.3625E+02
   2.660  0.6083E+00  0.3626E+02
   2.670  0.6123E+00  0.3626E+02
   2.680  0.6163E+00  0.3627E+02
   2.690  0.6203E+00  0.3627E+02
   2.700  0.6243E+00  0.3628E+02
   2.710  0.6284E+00  0.3629E+02
   2.720  0.6324E+00  0.3629E+02
   2.730  0.6364E+00  0.3630E+02
   2.740  0.6404E+00  0.3631E+02
   2.750  0.6444E+00  0.3631E+02
   2.760  0.6484E+00  0.3632E+02
   2.770  0.6524E+00  0.3632E+02
   2.780  0.6564E+00  0.3633E+02
   2.790  0.6604E+00  0.3634E+02
   2.800  0.6644E+00  0.3634E+02
   2.810  0.6684E+00  0.3635E+02
   2.820  0.6724E+00  0.3636E+02
   2.830  0.6764E+00  0.3636E+02
   2.840  0.6804E+00  0.3637E+02
   2.850  0.6844E+00  0.3638E+02
   2.860  0.1871E+01  0.3640E+02
   2.870  0.2467E+01  0.3642E+02
   2.880  0.1112E+01  0.3644E+02
   2.890  0.1128E+01  0.3645E+02
   2.900  0.1145E+01  0.3646E+02
   2.910  0.1161E+01  0.3647E+02
   2.920  0.1177E+01  0.3648E+02
   2.930  0.1193E+01  0.3650E+02
   2.940  0.1210E+01  0.3651E+02
   2.950  0.1226E+01  0.3652E+02
   2.960  0.1242E+01  0.3653E+02
   2.970  0.1259E+01  0.3654E+02
   2.980  0.1277E+01  0.3656E+02
   2.990  0.1294E+01  0.3657E+02
   3.000  0.1311E+01  0.3658E+02
   3.010  0.1329E+01  0.3660E+02
   3.020  0.1346E+01  0.3661E+02
   3.030  0.1364E+01  0.3662E+02
   3.040  0.1381E+01  0.3664E+02
   3.050  0.1398E+01  0.3665E+02
   3.060  0.1416E+01  0.3666E+02
   3.070  0.1433E+01  0.3668E+02
   3.080  0.1450E+01  0.3669E+02
   3.090  0.1468E+01  0.3671E+02
   3.100  0.1485E+01  0.3672E+02
   3.110  0.1503E+01  0.3674E+02
   3.120  0.1643E+01  0.3675E+02
   3.130  0.1716E+01  0.3677E+02
   3.140  0.1743E+01  0.3679E+02
   3.150  0.1770E+01  0.3681E+02
   3.160  0.1796E+01  0.3682E+02
   3.170  0.1823E+01  0.3684E+02
   3.180  0.1845E+01  0.3686E+02
   3.190  0.1869E+01  0.3688E+02
   3.200  0.1896E+01  0.3690E+02
   3.210  0.1923E+01  0.3692E+02
   3.220  0.1950E+01  0.3694E+02
   3.230  0.1976E+01  0.3695E+02
   3.240  0.2003E+01  0.3697E+02
   3.250  0.2030E+01  0.3699E+02
   3.260  0.2057E+01  0.3702E+02
   3.270  0.2084E+01  0.3704E+02
   3.280  0.2110E+01  0.3706E+02
   3.290  0.2137E+01  0.3708E+02
   3.300  0.2164E+01  0.3710E+02
   3.310  0.2191E+01  0.3712E+02
   3.320  0.2218E+01  0.3714E+02
   3.330  0.2244E+01  0.3717E+02
   3.340  0.2271E+01  0.3719E+02
   3.350  0.2298E+01  0.3721E+02
   3.360  0.2325E+01  0.3723E+02
   3.370  0.2352E+01  0.3726E+02
   3.380  0.2378E+01  0.3728E+02
   3.390  0.2405E+01  0.3731E+02
   3.400  0.2432E+01  0.3733E+02
   3.410  0.2459E+01  0.3735E+02
   3.420  0.9196E+01  0.3740E+02
   3.430  0.2466E+01  0.3747E+02
   3.440  0.2473E+01  0.3749E+02
   3.450  0.2481E+01  0.3752E+02
   3.460  0.2487E+01  0.3754E+02
   3.470  0.2489E+01  0.3757E+02
   3.480  0.2487E+01  0.3759E+02
   3.490  0.2533E+01  0.3761E+02
   3.500  0.2967E+01  0.3764E+02
   3.510  0.3226E+01  0.3767E+02
   3.520  0.3268E+01  0.3771E+02
   3.530  0.3310E+01  0.3774E+02
   3.540  0.3351E+01  0.3777E+02
   3.550  0.3393E+01  0.3781E+02
   3.560  0.3435E+01  0.3784E+02
   3.570  0.3477E+01  0.3788E+02
   3.580  0.3519E+01  0.3791E+02
   3.590  0.3561E+01  0.3795E+02
   3.600  0.3602E+01  0.3798E+02
   3.610  0.1060E+02  0.3803E+02
   3.620  0.2974E+01  0.3811E+02
   3.630  0.2949E+01  0.3814E+02
   3.640  0.2924E+01  0.3817E+02
   3.650  0.2900E+01  0.3820E+02
   3.660  0.2875E+01  0.3823E+02
   3.670  0.2850E+01  0.3826E+02
   3.680  0.2825E+01  0.3829E+02
   3.690  0.2801E+01  0.3831E+02
   3.700  0.2776E+01  0.3834E+02
   3.710  0.2751E+01  0.3837E+02
   3.720  0.2727E+01  0.3840E+02
   3.730  0.2702E+01  0.3842E+02
   3.740  0.2677E+01  0.3845E+02
   3.750  0.2626E+01  0.3848E+02
   3.760  0.2516E+01  0.3850E+02
   3.770  0.2480E+01  0.3853E+02
   3.780  0.2464E+01  0.3855E+02
   3.790  0.2448E+01  0.3858E+02
   3.800  0.2432E+01  0.3860E+02
   3.810  0.2417E+01  0.3863E+02
   3.820  0.2397E+01  0.3865E+02
   3.830  0.2363E+01  0.3867E+02
   3.840  0.2323E+01  0.3870E+02
   3.850  0.2293E+01  0.3872E+02
   3.860  0.2263E+01  0.3874E+02
   3.870  0.2234E+01  0.3877E+02
   3.880  0.2204E+01  0.3879E+02
   3.890  0.2174E+01  0.3881E+02
   3.900  0.2145E+01  0.3883E+02
   3.910  0.2094E+01  0.3885E+02
   3.920  0.2009E+01  0.3887E+02
   3.930  0.1994E+01  0.3889E+02
   3.940  0.1980E+01  0.3891E+02
   3.950  0.1966E+01  0.3893E+02
   3.960  0.1951E+01  0.3895E+02
   3.970  0.1937E+01  0.3897E+02
   3.980  0.1923E+01  0.3899E+02
   3.990  0.1911E+01  0.3901E+02
   4.000  0.1901E+01  0.3903E+02
   4.010  0.1891E+01  0.3905E+02
   4.020  0.1881E+01  0.3907E+02
   4.030  0.1871E+01  0.3909E+02
   4.040  0.1861E+01  0.3910E+02
   4.050  0.1851E+01  0.3912E+02
   4.060  0.1841E+01  0.3914E+02
   4.070  0.1831E+01  0.3916E+02
   4.080  0.1822E+01  0.3918E+02
   4.090  0.1812E+01  0.3920E+02
   4.100  0.1802E+01  0.3921E+02
   4.110  0.1792E+01  0.3923E+02
   4.120  0.2929E+01  0.3926E+02
   4.130  0.3171E+01  0.3929E+02
   4.140  0.4304E+01  0.3935E+02
   4.150  0.3700E+01  0.3940E+02
   4.160  0.3832E+01  0.3943E+02
   4.170  0.3963E+01  0.3947E+02
   4.180  0.4095E+01  0.3951E+02
   4.190  0.4227E+01  0.3956E+02
   4.200  0.5063E+01  0.3964E+02
   4.210  0.5263E+01  0.3969E+02
   4.220  0.5476E+01  0.3974E+02
   4.230  0.5690E+01  0.3980E+02
   4.240  0.5903E+01  0.3985E+02
   4.250  0.5724E+01  0.3991E+02
   4.260  0.5792E+01  0.3997E+02
   4.270  0.5860E+01  0.4003E+02
   4.280  0.6234E+01  0.4009E+02
   4.290  0.6440E+01  0.4015E+02
   4.300  0.6286E+01  0.4022E+02
   4.310  0.6256E+01  0.4028E+02
   4.320  0.6227E+01  0.4034E+02
   4.330  0.6874E+01  0.4041E+02
   4.340  0.6714E+01  0.4047E+02
   4.350  0.6421E+01  0.4054E+02
   4.360  0.6128E+01  0.4060E+02
   4.370  0.5779E+01  0.4066E+02
   4.380  0.5627E+01  0.4072E+02
   4.390  0.5500E+01  0.4078E+02
   4.400  0.5421E+01  0.4083E+02
   4.410  0.5437E+01  0.4088E+02
   4.420  0.5453E+01  0.4094E+02
   4.430  0.5469E+01  0.4099E+02
   4.440  0.5485E+01  0.4105E+02
   4.450  0.5502E+01  0.4110E+02
   4.460  0.5518E+01  0.4116E+02
   4.470  0.5534E+01  0.4121E+02
   4.480  0.4932E+01  0.4130E+02
   4.490  0.4977E+01  0.4135E+02
   4.500  0.5022E+01  0.4140E+02
   4.510  0.5068E+01  0.4145E+02
   4.520  0.5113E+01  0.4150E+02
   4.530  0.4632E+01  0.4158E+02
   4.540  0.4560E+01  0.4162E+02
   4.550  0.1300E+02  0.4169E+02
   4.560  0.6630E+01  0.4177E+02
   4.570  0.6775E+01  0.4184E+02
   4.580  0.6920E+01  0.4190E+02
   4.590  0.7654E+01  0.4198E+02
   4.600  0.7921E+01  0.4205E+02
   4.610  0.9913E+01  0.4214E+02
   4.620  0.9429E+01  0.4224E+02
   4.630  0.8946E+01  0.4233E+02
   4.640  0.8465E+01  0.4242E+02
   4.650  0.8156E+01  0.4250E+02
   4.660  0.7862E+01  0.4258E+02
   4.670  0.7915E+01  0.4267E+02
   4.680  0.7092E+01  0.4274E+02
   4.690  0.6872E+01  0.4281E+02
   4.700  0.5556E+01  0.4288E+02
   4.710  0.5508E+01  0.4293E+02
   4.720  0.5460E+01  0.4299E+02
   4.730  0.5411E+01  0.4304E+02
   4.740  0.5476E+01  0.4310E+02
   4.750  0.5563E+01  0.4315E+02
   4.760  0.5514E+01  0.4321E+02
   4.770  0.5396E+01  0.4326E+02
   4.780  0.5365E+01  0.4332E+02
   4.790  0.5377E+01  0.4337E+02
   4.800  0.5389E+01  0.4342E+02
   4.810  0.5401E+01  0.4348E+02
   4.820  0.5413E+01  0.4353E+02
   4.830  0.5425E+01  0.4359E+02
   4.840  0.5437E+01  0.4364E+02
   4.850  0.5450E+01  0.4370E+02
   4.860  0.5462E+01  0.4375E+02
   4.870  0.5777E+01  0.4381E+02
   4.880  0.1991E+02  0.4396E+02
   4.890  0.8630E+01  0.4416E+02
   4.900  0.1183E+02  0.4427E+02
   4.910  0.1410E+02  0.4440E+02
   4.920  0.1544E+02  0.4456E+02
   4.930  0.1523E+02  0.4471E+02
   4.940  0.1443E+02  0.4486E+02
   4.950  0.1417E+02  0.4500E+02
   4.960  0.1781E+02  0.4515E+02
   4.970  0.1179E+02  0.4541E+02
   4.980  0.1757E+02  0.4561E+02
   4.990  0.1938E+02  0.4580E+02
   5.000  0.1543E+02  0.4597E+02
   5.010  0.9539E+01  0.4610E+02
   5.020  0.8853E+01  0.4619E+02
   5.030  0.8130E+01  0.4627E+02
   5.040  0.7508E+01  0.4635E+02
   5.050  0.7123E+01  0.4643E+02
   5.060  0.6788E+01  0.4649E+02
   5.070  0.6453E+01  0.4656E+02
   5.080  0.7507E+01  0.4663E+02
   5.090  0.2899E+01  0.4669E+02
   5.100  0.2981E+01  0.4672E+02
   5.110  0.5087E+01  0.4677E+02
   5.120  0.5968E+01  0.4683E+02
   5.130  0.7583E+01  0.4689E+02
   5.140  0.8118E+01  0.4697E+02
   5.150  0.1977E+02  0.4709E+02
   5.160  0.2472E+02  0.4735E+02
   5.170  0.1969E+02  0.4756E+02
   5.180  0.2203E+02  0.4778E+02
   5.190  0.2021E+02  0.4799E+02
   5.200  0.1806E+02  0.4818E+02
   5.210  0.1941E+02  0.4837E+02
   5.220  0.8956E+01  0.4849E+02
   5.230  0.5488E+01  0.4857E+02
   5.240  0.2385E+01  0.4860E+02
   5.250  0.2817E+01  0.4862E+02
   5.260  0.3283E+01  0.4865E+02
   5.270  0.3363E+01  0.4869E+02
   5.280  0.3443E+01  0.4872E+02
   5.290  0.3523E+01  0.4876E+02
   5.300  0.3602E+01  0.4879E+02
   5.310  0.3682E+01  0.4883E+02
   5.320  0.3762E+01  0.4887E+02
   5.330  0.3742E+01  0.4890E+02
   5.340  0.3798E+01  0.4894E+02
   5.350  0.3886E+01  0.4898E+02
   5.360  0.4207E+01  0.4902E+02
   5.370  0.4482E+01  0.4906E+02
   5.380  0.4841E+01  0.4911E+02
   5.390  0.4855E+01  0.4916E+02
   5.400  0.4869E+01  0.4921E+02
   5.410  0.4883E+01  0.4926E+02
   5.420  0.4897E+01  0.4930E+02
   5.430  0.4910E+01  0.4935E+02
   5.440  0.4924E+01  0.4940E+02
   5.450  0.4938E+01  0.4945E+02
   5.460  0.4952E+01  0.4950E+02
   5.470  0.4966E+01  0.4955E+02
   5.480  0.4980E+01  0.4960E+02
   5.490  0.7629E+01  0.4966E+02
   5.500  0.5248E+01  0.4973E+02
   5.510  0.5144E+01  0.4979E+02
   5.520  0.5041E+01  0.4984E+02
   5.530  0.4937E+01  0.4989E+02
   5.540  0.4833E+01  0.4994E+02
   5.550  0.4730E+01  0.4998E+02
   5.560  0.4626E+01  0.5003E+02
   5.570  0.6730E+01  0.5009E+02
   5.580  0.9190E+01  0.5018E+02
   5.590  0.6777E+01  0.5028E+02
   5.600  0.4381E+01  0.5034E+02
   5.610  0.4240E+01  0.5038E+02
   5.620  0.4099E+01  0.5042E+02
   5.630  0.3058E+01  0.5049E+02
   5.640  0.3022E+01  0.5052E+02
   5.650  0.4097E+01  0.5059E+02
   5.660  0.4240E+01  0.5063E+02
   5.670  0.4383E+01  0.5067E+02
   5.680  0.4526E+01  0.5072E+02
   5.690  0.4669E+01  0.5077E+02
   5.700  0.4812E+01  0.5081E+02
   5.710  0.5005E+01  0.5086E+02
   5.720  0.5511E+01  0.5091E+02
   5.730  0.6229E+01  0.5097E+02
   5.740  0.6947E+01  0.5104E+02
   5.750  0.7664E+01  0.5111E+02
   5.760  0.8382E+01  0.5119E+02
   5.770  0.9100E+01  0.5128E+02
   5.780  0.7747E+01  0.5136E+02
   5.790  0.8101E+01  0.5144E+02
   5.800  0.8459E+01  0.5152E+02
   5.810  0.9692E+01  0.5175E+02
   5.820  0.9741E+01  0.5185E+02
   5.830  0.1037E+02  0.5196E+02
   5.840  0.7517E+01  0.5204E+02
   5.850  0.4409E+01  0.5212E+02
   5.860  0.4476E+01  0.5217E+02
   5.870  0.4542E+01  0.5221E+02
   5.880  0.4603E+01  0.5226E+02
   5.890  0.4655E+01  0.5230E+02
   5.900  0.4702E+01  0.5235E+02
   5.910  0.4752E+01  0.5240E+02
   5.920  0.4816E+01  0.5244E+02
   5.930  0.4880E+01  0.5249E+02
   5.940  0.8483E+01  0.5257E+02
   5.950  0.1351E+02  0.5268E+02
   5.960  0.9338E+01  0.5278E+02
   5.970  0.8938E+01  0.5287E+02
   5.980  0.9031E+01  0.5296E+02
   5.990  0.4993E+01  0.5303E+02
   6.000  0.4196E+01  0.5307E+02
   6.010  0.3479E+01  0.5311E+02
   6.020  0.1762E+01  0.5315E+02
   6.030  0.1744E+01  0.5317E+02
