#  E (eV)   dos(E)     Int dos(E) EFermi =   10.687 eV
   0.000  0.1490E+02  0.2999E+02
   0.010  0.1427E+02  0.3015E+02
   0.020  0.1500E+02  0.3030E+02
   0.030  0.1705E+02  0.3046E+02
   0.040  0.1882E+02  0.3064E+02
   0.050  0.1600E+02  0.3081E+02
   0.060  0.1769E+02  0.3098E+02
   0.070  0.1256E+02  0.3114E+02
   0.080  0.1228E+02  0.3126E+02
   0.090  0.1575E+02  0.3141E+02
   0.100  0.2099E+02  0.3159E+02
   0.110  0.1427E+02  0.3176E+02
   0.120  0.1121E+02  0.3188E+02
   0.130  0.1352E+02  0.3202E+02
   0.140  0.1344E+02  0.3217E+02
   0.150  0.1291E+02  0.3230E+02
   0.160  0.1556E+02  0.3244E+02
   0.170  0.1382E+02  0.3259E+02
   0.180  0.1123E+02  0.3272E+02
   0.190  0.1079E+02  0.3283E+02
   0.200  0.1077E+02  0.3293E+02
   0.210  0.9562E+01  0.3304E+02
   0.220  0.9656E+01  0.3313E+02
   0.230  0.1436E+02  0.3324E+02
   0.240  0.1317E+02  0.3340E+02
   0.250  0.1202E+02  0.3352E+02
   0.260  0.1203E+02  0.3364E+02
   0.270  0.1203E+02  0.3376E+02
   0.280  0.2079E+02  0.3393E+02
   0.290  0.1232E+02  0.3412E+02
   0.300  0.1240E+02  0.3425E+02
   0.310  0.1418E+02  0.3437E+02
   0.320  0.2979E+02  0.3456E+02
   0.330  0.7950E+01  0.3467E+02
   0.340  0.7666E+01  0.3474E+02
   0.350  0.7498E+01  0.3482E+02
   0.360  0.7332E+01  0.3489E+02
   0.370  0.5701E+01  0.3500E+02
   0.380  0.5634E+01  0.3505E+02
   0.390  0.5486E+01  0.3511E+02
   0.400  0.1544E+02  0.3518E+02
   0.410  0.4416E+01  0.3524E+02
   0.420  0.1094E+02  0.3530E+02
   0.430  0.5536E+01  0.3537E+02
   0.440  0.5638E+01  0.3542E+02
   0.450  0.5740E+01  0.3548E+02
   0.460  0.5842E+01  0.3554E+02
   0.470  0.7078E+01  0.3564E+02
   0.480  0.7274E+01  0.3571E+02
   0.490  0.6657E+01  0.3581E+02
   0.500  0.6894E+01  0.3587E+02
   0.510  0.7131E+01  0.3594E+02
   0.520  0.7369E+01  0.3602E+02
   0.530  0.7736E+01  0.3609E+02
   0.540  0.8498E+01  0.3617E+02
   0.550  0.9603E+01  0.3626E+02
   0.560  0.1131E+02  0.3637E+02
   0.570  0.1309E+02  0.3649E+02
   0.580  0.1566E+02  0.3664E+02
   0.590  0.1669E+02  0.3680E+02
   0.600  0.1902E+02  0.3701E+02
   0.610  0.1942E+02  0.3720E+02
   0.620  0.1978E+02  0.3744E+02
   0.630  0.1275E+02  0.3760E+02
   0.640  0.6686E+01  0.3773E+02
   0.650  0.5483E+01  0.3779E+02
   0.660  0.4280E+01  0.3784E+02
   0.670  0.3539E+01  0.3788E+02
   0.680  0.3659E+01  0.3792E+02
   0.690  0.3081E+01  0.3795E+02
   0.700  0.0000E+00  0.3800E+02
   0.710  0.0000E+00  0.3800E+02
   0.720  0.0000E+00  0.3800E+02
   0.730  0.0000E+00  0.3800E+02
   0.740  0.0000E+00  0.3800E+02
   0.750  0.0000E+00  0.3800E+02
   0.760  0.0000E+00  0.3800E+02
   0.770  0.0000E+00  0.3800E+02
   0.780  0.0000E+00  0.3800E+02
   0.790  0.0000E+00  0.3800E+02
   0.800  0.0000E+00  0.3800E+02
   0.810  0.0000E+00  0.3800E+02
   0.820  0.0000E+00  0.3800E+02
   0.830  0.0000E+00  0.3800E+02
   0.840  0.0000E+00  0.3800E+02
   0.850  0.0000E+00  0.3800E+02
   0.860  0.0000E+00  0.3800E+02
   0.870  0.0000E+00  0.3800E+02
   0.880  0.0000E+00  0.3800E+02
   0.890  0.0000E+00  0.3800E+02
   0.900  0.0000E+00  0.3800E+02
   0.910  0.0000E+00  0.3800E+02
   0.920  0.0000E+00  0.3800E+02
   0.930  0.0000E+00  0.3800E+02
   0.940  0.0000E+00  0.3800E+02
   0.950  0.0000E+00  0.3800E+02
   0.960  0.0000E+00  0.3800E+02
   0.970  0.0000E+00  0.3800E+02
   0.980  0.0000E+00  0.3800E+02
   0.990  0.0000E+00  0.3800E+02
   1.000  0.0000E+00  0.3800E+02
   1.010  0.0000E+00  0.3800E+02
   1.020  0.0000E+00  0.3800E+02
   1.030  0.0000E+00  0.3800E+02
   1.040  0.0000E+00  0.3800E+02
   1.050  0.0000E+00  0.3800E+02
   1.060  0.0000E+00  0.3800E+02
   1.070  0.0000E+00  0.3800E+02
   1.080  0.0000E+00  0.3800E+02
   1.090  0.0000E+00  0.3800E+02
   1.100  0.0000E+00  0.3800E+02
   1.110  0.0000E+00  0.3800E+02
   1.120  0.0000E+00  0.3800E+02
   1.130  0.0000E+00  0.3800E+02
   1.140  0.0000E+00  0.3800E+02
   1.150  0.0000E+00  0.3800E+02
   1.160  0.0000E+00  0.3800E+02
   1.170  0.0000E+00  0.3800E+02
   1.180  0.0000E+00  0.3800E+02
   1.190  0.0000E+00  0.3800E+02
   1.200  0.0000E+00  0.3800E+02
   1.210  0.0000E+00  0.3800E+02
   1.220  0.0000E+00  0.3800E+02
   1.230  0.0000E+00  0.3800E+02
   1.240  0.0000E+00  0.3800E+02
   1.250  0.0000E+00  0.3800E+02
   1.260  0.0000E+00  0.3800E+02
   1.270  0.0000E+00  0.3800E+02
   1.280  0.0000E+00  0.3800E+02
   1.290  0.0000E+00  0.3800E+02
   1.300  0.0000E+00  0.3800E+02
   1.310  0.0000E+00  0.3800E+02
   1.320  0.0000E+00  0.3800E+02
   1.330  0.0000E+00  0.3800E+02
   1.340  0.0000E+00  0.3800E+02
   1.350  0.0000E+00  0.3800E+02
   1.360  0.0000E+00  0.3800E+02
   1.370  0.0000E+00  0.3800E+02
   1.380  0.0000E+00  0.3800E+02
   1.390  0.0000E+00  0.3800E+02
   1.400  0.0000E+00  0.3800E+02
   1.410  0.0000E+00  0.3800E+02
   1.420  0.0000E+00  0.3800E+02
   1.430  0.0000E+00  0.3800E+02
   1.440  0.0000E+00  0.3800E+02
   1.450  0.0000E+00  0.3800E+02
   1.460  0.0000E+00  0.3800E+02
   1.470  0.0000E+00  0.3800E+02
   1.480  0.0000E+00  0.3800E+02
   1.490  0.0000E+00  0.3800E+02
   1.500  0.0000E+00  0.3800E+02
   1.510  0.0000E+00  0.3800E+02
   1.520  0.0000E+00  0.3800E+02
   1.530  0.0000E+00  0.3800E+02
   1.540  0.0000E+00  0.3800E+02
   1.550  0.0000E+00  0.3800E+02
   1.560  0.0000E+00  0.3800E+02
   1.570  0.0000E+00  0.3800E+02
   1.580  0.0000E+00  0.3800E+02
   1.590  0.0000E+00  0.3800E+02
   1.600  0.0000E+00  0.3800E+02
   1.610  0.0000E+00  0.3800E+02
   1.620  0.0000E+00  0.3800E+02
   1.630  0.0000E+00  0.3800E+02
   1.640  0.0000E+00  0.3800E+02
   1.650  0.0000E+00  0.3800E+02
   1.660  0.0000E+00  0.3800E+02
   1.670  0.0000E+00  0.3800E+02
   1.680  0.0000E+00  0.3800E+02
   1.690  0.0000E+00  0.3800E+02
   1.700  0.0000E+00  0.3800E+02
   1.710  0.0000E+00  0.3800E+02
   1.720  0.0000E+00  0.3800E+02
   1.730  0.0000E+00  0.3800E+02
   1.740  0.0000E+00  0.3800E+02
   1.750  0.0000E+00  0.3800E+02
   1.760  0.0000E+00  0.3800E+02
   1.770  0.0000E+00  0.3800E+02
   1.780  0.0000E+00  0.3800E+02
   1.790  0.0000E+00  0.3800E+02
   1.800  0.0000E+00  0.3800E+02
   1.810  0.0000E+00  0.3800E+02
   1.820  0.0000E+00  0.3800E+02
   1.830  0.0000E+00  0.3800E+02
   1.840  0.0000E+00  0.3800E+02
   1.850  0.0000E+00  0.3800E+02
   1.860  0.0000E+00  0.3800E+02
   1.870  0.0000E+00  0.3800E+02
   1.880  0.0000E+00  0.3800E+02
   1.890  0.0000E+00  0.3800E+02
   1.900  0.0000E+00  0.3800E+02
   1.910  0.0000E+00  0.3800E+02
   1.920  0.0000E+00  0.3800E+02
   1.930  0.0000E+00  0.3800E+02
   1.940  0.0000E+00  0.3800E+02
   1.950  0.0000E+00  0.3800E+02
   1.960  0.0000E+00  0.3800E+02
   1.970  0.0000E+00  0.3800E+02
   1.980  0.0000E+00  0.3800E+02
   1.990  0.0000E+00  0.3800E+02
   2.000  0.0000E+00  0.3800E+02
   2.010  0.0000E+00  0.3800E+02
   2.020  0.0000E+00  0.3800E+02
   2.030  0.0000E+00  0.3800E+02
   2.040  0.0000E+00  0.3800E+02
   2.050  0.0000E+00  0.3800E+02
   2.060  0.0000E+00  0.3800E+02
   2.070  0.0000E+00  0.3800E+02
   2.080  0.0000E+00  0.3800E+02
   2.090  0.0000E+00  0.3800E+02
   2.100  0.0000E+00  0.3800E+02
   2.110  0.0000E+00  0.3800E+02
   2.120  0.0000E+00  0.3800E+02
   2.130  0.0000E+00  0.3800E+02
   2.140  0.0000E+00  0.3800E+02
   2.150  0.0000E+00  0.3800E+02
   2.160  0.0000E+00  0.3800E+02
   2.170  0.0000E+00  0.3800E+02
   2.180  0.0000E+00  0.3800E+02
   2.190  0.0000E+00  0.3800E+02
   2.200  0.0000E+00  0.3800E+02
   2.210  0.0000E+00  0.3800E+02
   2.220  0.0000E+00  0.3800E+02
   2.230  0.0000E+00  0.3800E+02
   2.240  0.0000E+00  0.3800E+02
   2.250  0.0000E+00  0.3800E+02
   2.260  0.0000E+00  0.3800E+02
   2.270  0.0000E+00  0.3800E+02
   2.280  0.0000E+00  0.3800E+02
   2.290  0.0000E+00  0.3800E+02
   2.300  0.0000E+00  0.3800E+02
   2.310  0.0000E+00  0.3800E+02
   2.320  0.0000E+00  0.3800E+02
   2.330  0.0000E+00  0.3800E+02
   2.340  0.0000E+00  0.3800E+02
   2.350  0.0000E+00  0.3800E+02
   2.360  0.0000E+00  0.3800E+02
   2.370  0.0000E+00  0.3800E+02
   2.380  0.0000E+00  0.3800E+02
   2.390  0.0000E+00  0.3800E+02
   2.400  0.0000E+00  0.3800E+02
   2.410  0.0000E+00  0.3800E+02
   2.420  0.0000E+00  0.3800E+02
   2.430  0.0000E+00  0.3800E+02
   2.440  0.0000E+00  0.3800E+02
   2.450  0.0000E+00  0.3800E+02
   2.460  0.0000E+00  0.3800E+02
   2.470  0.0000E+00  0.3800E+02
   2.480  0.0000E+00  0.3800E+02
   2.490  0.0000E+00  0.3800E+02
   2.500  0.0000E+00  0.3800E+02
   2.510  0.0000E+00  0.3800E+02
   2.520  0.0000E+00  0.3800E+02
   2.530  0.0000E+00  0.3800E+02
   2.540  0.0000E+00  0.3800E+02
   2.550  0.0000E+00  0.3800E+02
   2.560  0.0000E+00  0.3800E+02
   2.570  0.0000E+00  0.3800E+02
   2.580  0.0000E+00  0.3800E+02
   2.590  0.0000E+00  0.3800E+02
   2.600  0.0000E+00  0.3800E+02
   2.610  0.0000E+00  0.3800E+02
   2.620  0.0000E+00  0.3800E+02
   2.630  0.0000E+00  0.3800E+02
   2.640  0.0000E+00  0.3800E+02
   2.650  0.0000E+00  0.3800E+02
   2.660  0.0000E+00  0.3800E+02
   2.670  0.0000E+00  0.3800E+02
   2.680  0.0000E+00  0.3800E+02
   2.690  0.0000E+00  0.3800E+02
   2.700  0.0000E+00  0.3800E+02
   2.710  0.0000E+00  0.3800E+02
   2.720  0.0000E+00  0.3800E+02
   2.730  0.0000E+00  0.3800E+02
   2.740  0.0000E+00  0.3800E+02
   2.750  0.0000E+00  0.3800E+02
   2.760  0.0000E+00  0.3800E+02
   2.770  0.0000E+00  0.3800E+02
   2.780  0.0000E+00  0.3800E+02
   2.790  0.0000E+00  0.3800E+02
   2.800  0.0000E+00  0.3800E+02
   2.810  0.0000E+00  0.3800E+02
   2.820  0.0000E+00  0.3800E+02
   2.830  0.0000E+00  0.3800E+02
   2.840  0.0000E+00  0.3800E+02
   2.850  0.0000E+00  0.3800E+02
   2.860  0.0000E+00  0.3800E+02
   2.870  0.0000E+00  0.3800E+02
   2.880  0.0000E+00  0.3800E+02
   2.890  0.0000E+00  0.3800E+02
   2.900  0.0000E+00  0.3800E+02
   2.910  0.0000E+00  0.3800E+02
   2.920  0.0000E+00  0.3800E+02
   2.930  0.0000E+00  0.3800E+02
   2.940  0.0000E+00  0.3800E+02
   2.950  0.0000E+00  0.3800E+02
   2.960  0.0000E+00  0.3800E+02
   2.970  0.0000E+00  0.3800E+02
   2.980  0.0000E+00  0.3800E+02
   2.990  0.0000E+00  0.3800E+02
   3.000  0.0000E+00  0.3800E+02
   3.010  0.1001E+01  0.3801E+02
   3.020  0.1420E+01  0.3802E+02
   3.030  0.3586E+00  0.3804E+02
   3.040  0.3682E+00  0.3804E+02
   3.050  0.3778E+00  0.3804E+02
   3.060  0.3874E+00  0.3805E+02
   3.070  0.3970E+00  0.3805E+02
   3.080  0.4066E+00  0.3806E+02
   3.090  0.4162E+00  0.3806E+02
   3.100  0.4258E+00  0.3806E+02
   3.110  0.4354E+00  0.3807E+02
   3.120  0.4450E+00  0.3807E+02
   3.130  0.4546E+00  0.3808E+02
   3.140  0.4642E+00  0.3808E+02
   3.150  0.4738E+00  0.3809E+02
   3.160  0.4834E+00  0.3809E+02
   3.170  0.4930E+00  0.3810E+02
   3.180  0.5026E+00  0.3810E+02
   3.190  0.5122E+00  0.3811E+02
   3.200  0.5218E+00  0.3811E+02
   3.210  0.5314E+00  0.3812E+02
   3.220  0.5410E+00  0.3812E+02
   3.230  0.5506E+00  0.3813E+02
   3.240  0.5602E+00  0.3813E+02
   3.250  0.5698E+00  0.3814E+02
   3.260  0.5794E+00  0.3814E+02
   3.270  0.5890E+00  0.3815E+02
   3.280  0.5986E+00  0.3816E+02
   3.290  0.6082E+00  0.3816E+02
   3.300  0.6178E+00  0.3817E+02
   3.310  0.6274E+00  0.3817E+02
   3.320  0.6370E+00  0.3818E+02
   3.330  0.6466E+00  0.3819E+02
   3.340  0.6562E+00  0.3819E+02
   3.350  0.6658E+00  0.3820E+02
   3.360  0.6754E+00  0.3821E+02
   3.370  0.6721E+00  0.3821E+02
   3.380  0.6483E+00  0.3822E+02
   3.390  0.6242E+00  0.3823E+02
   3.400  0.6220E+00  0.3823E+02
   3.410  0.6264E+00  0.3824E+02
   3.420  0.6307E+00  0.3825E+02
   3.430  0.6351E+00  0.3825E+02
   3.440  0.6394E+00  0.3826E+02
   3.450  0.6437E+00  0.3826E+02
   3.460  0.6481E+00  0.3827E+02
   3.470  0.6524E+00  0.3828E+02
   3.480  0.6567E+00  0.3828E+02
   3.490  0.6611E+00  0.3829E+02
   3.500  0.6654E+00  0.3830E+02
   3.510  0.6698E+00  0.3830E+02
   3.520  0.6741E+00  0.3831E+02
   3.530  0.6784E+00  0.3832E+02
   3.540  0.6828E+00  0.3832E+02
   3.550  0.6871E+00  0.3833E+02
   3.560  0.6914E+00  0.3834E+02
   3.570  0.6958E+00  0.3835E+02
   3.580  0.7001E+00  0.3835E+02
   3.590  0.7045E+00  0.3836E+02
   3.600  0.7088E+00  0.3837E+02
   3.610  0.7131E+00  0.3837E+02
   3.620  0.1644E+01  0.3839E+02
   3.630  0.1513E+01  0.3841E+02
   3.640  0.1860E+01  0.3842E+02
   3.650  0.1170E+01  0.3844E+02
   3.660  0.1188E+01  0.3846E+02
   3.670  0.1206E+01  0.3847E+02
   3.680  0.1223E+01  0.3848E+02
   3.690  0.1241E+01  0.3849E+02
   3.700  0.1259E+01  0.3850E+02
   3.710  0.1276E+01  0.3852E+02
   3.720  0.1295E+01  0.3853E+02
   3.730  0.1314E+01  0.3854E+02
   3.740  0.1333E+01  0.3856E+02
   3.750  0.1353E+01  0.3857E+02
   3.760  0.1372E+01  0.3858E+02
   3.770  0.1392E+01  0.3860E+02
   3.780  0.1411E+01  0.3861E+02
   3.790  0.1431E+01  0.3863E+02
   3.800  0.1450E+01  0.3864E+02
   3.810  0.1470E+01  0.3865E+02
   3.820  0.1489E+01  0.3867E+02
   3.830  0.1509E+01  0.3868E+02
   3.840  0.1528E+01  0.3870E+02
   3.850  0.1548E+01  0.3871E+02
   3.860  0.1603E+01  0.3873E+02
   3.870  0.1644E+01  0.3875E+02
   3.880  0.1728E+01  0.3876E+02
   3.890  0.1817E+01  0.3878E+02
   3.900  0.1868E+01  0.3880E+02
   3.910  0.1903E+01  0.3882E+02
   3.920  0.1937E+01  0.3884E+02
   3.930  0.1969E+01  0.3886E+02
   3.940  0.2002E+01  0.3888E+02
   3.950  0.2035E+01  0.3890E+02
   3.960  0.2068E+01  0.3892E+02
   3.970  0.2100E+01  0.3894E+02
   3.980  0.2131E+01  0.3896E+02
   3.990  0.2163E+01  0.3898E+02
   4.000  0.2195E+01  0.3900E+02
   4.010  0.2227E+01  0.3902E+02
   4.020  0.2259E+01  0.3905E+02
   4.030  0.2291E+01  0.3907E+02
   4.040  0.2323E+01  0.3909E+02
   4.050  0.2355E+01  0.3912E+02
   4.060  0.2387E+01  0.3914E+02
   4.070  0.2419E+01  0.3916E+02
   4.080  0.2451E+01  0.3919E+02
   4.090  0.2483E+01  0.3921E+02
   4.100  0.2515E+01  0.3924E+02
   4.110  0.3105E+01  0.3927E+02
   4.120  0.3125E+01  0.3930E+02
   4.130  0.2883E+01  0.3933E+02
   4.140  0.2904E+01  0.3936E+02
   4.150  0.2853E+01  0.3939E+02
   4.160  0.2874E+01  0.3942E+02
   4.170  0.2894E+01  0.3944E+02
   4.180  0.3069E+01  0.3951E+02
   4.190  0.2945E+01  0.3954E+02
   4.200  0.3042E+01  0.3957E+02
   4.210  0.3098E+01  0.3960E+02
   4.220  0.3155E+01  0.3963E+02
   4.230  0.3214E+01  0.3966E+02
   4.240  0.3489E+01  0.3970E+02
   4.250  0.3733E+01  0.3974E+02
   4.260  0.3825E+01  0.3977E+02
   4.270  0.3822E+01  0.3981E+02
   4.280  0.3823E+01  0.3985E+02
   4.290  0.3824E+01  0.3989E+02
   4.300  0.3821E+01  0.3993E+02
   4.310  0.3815E+01  0.3997E+02
   4.320  0.3831E+01  0.4000E+02
   4.330  0.3823E+01  0.4004E+02
   4.340  0.3812E+01  0.4008E+02
   4.350  0.9553E+01  0.4014E+02
   4.360  0.3149E+01  0.4018E+02
   4.370  0.3120E+01  0.4022E+02
   4.380  0.5149E+01  0.4026E+02
   4.390  0.5221E+01  0.4031E+02
   4.400  0.6026E+01  0.4037E+02
   4.410  0.8155E+01  0.4044E+02
   4.420  0.7725E+01  0.4052E+02
   4.430  0.5773E+01  0.4060E+02
   4.440  0.5818E+01  0.4066E+02
   4.450  0.3907E+01  0.4074E+02
   4.460  0.3853E+01  0.4078E+02
   4.470  0.3763E+01  0.4082E+02
   4.480  0.3736E+01  0.4086E+02
   4.490  0.3705E+01  0.4089E+02
   4.500  0.3687E+01  0.4093E+02
   4.510  0.3669E+01  0.4097E+02
   4.520  0.3647E+01  0.4100E+02
   4.530  0.3620E+01  0.4104E+02
   4.540  0.3589E+01  0.4108E+02
   4.550  0.3549E+01  0.4111E+02
   4.560  0.3509E+01  0.4115E+02
   4.570  0.3473E+01  0.4118E+02
   4.580  0.3433E+01  0.4122E+02
   4.590  0.3396E+01  0.4125E+02
   4.600  0.3360E+01  0.4128E+02
   4.610  0.3324E+01  0.4132E+02
   4.620  0.3240E+01  0.4135E+02
   4.630  0.3215E+01  0.4138E+02
   4.640  0.3191E+01  0.4141E+02
   4.650  0.3175E+01  0.4145E+02
   4.660  0.3160E+01  0.4148E+02
   4.670  0.3146E+01  0.4151E+02
   4.680  0.3132E+01  0.4154E+02
   4.690  0.3119E+01  0.4157E+02
   4.700  0.3107E+01  0.4160E+02
   4.710  0.3094E+01  0.4163E+02
   4.720  0.3082E+01  0.4167E+02
   4.730  0.3069E+01  0.4170E+02
   4.740  0.3057E+01  0.4173E+02
   4.750  0.3044E+01  0.4176E+02
   4.760  0.3032E+01  0.4179E+02
   4.770  0.3019E+01  0.4182E+02
   4.780  0.3007E+01  0.4185E+02
   4.790  0.2994E+01  0.4188E+02
   4.800  0.2981E+01  0.4191E+02
   4.810  0.3482E+01  0.4195E+02
   4.820  0.3576E+01  0.4198E+02
   4.830  0.3558E+01  0.4202E+02
   4.840  0.3652E+01  0.4205E+02
   4.850  0.3765E+01  0.4209E+02
   4.860  0.3891E+01  0.4213E+02
   4.870  0.5171E+01  0.4220E+02
   4.880  0.5455E+01  0.4226E+02
   4.890  0.5762E+01  0.4231E+02
   4.900  0.5855E+01  0.4237E+02
   4.910  0.6170E+01  0.4243E+02
   4.920  0.7167E+01  0.4253E+02
   4.930  0.7559E+01  0.4261E+02
   4.940  0.7969E+01  0.4269E+02
   4.950  0.8331E+01  0.4277E+02
   4.960  0.8387E+01  0.4285E+02
   4.970  0.8189E+01  0.4294E+02
   4.980  0.8055E+01  0.4302E+02
   4.990  0.8003E+01  0.4310E+02
   5.000  0.7950E+01  0.4318E+02
   5.010  0.7898E+01  0.4326E+02
   5.020  0.8911E+01  0.4334E+02
   5.030  0.8201E+01  0.4342E+02
   5.040  0.7308E+01  0.4350E+02
   5.050  0.6936E+01  0.4357E+02
   5.060  0.6968E+01  0.4364E+02
   5.070  0.7000E+01  0.4371E+02
   5.080  0.7033E+01  0.4378E+02
   5.090  0.6997E+01  0.4385E+02
   5.100  0.6983E+01  0.4392E+02
   5.110  0.6976E+01  0.4399E+02
   5.120  0.6944E+01  0.4406E+02
   5.130  0.6819E+01  0.4413E+02
   5.140  0.6813E+01  0.4420E+02
   5.150  0.8783E+01  0.4427E+02
   5.160  0.7970E+01  0.4435E+02
   5.170  0.6316E+01  0.4442E+02
   5.180  0.6355E+01  0.4449E+02
   5.190  0.6388E+01  0.4455E+02
   5.200  0.1200E+02  0.4463E+02
   5.210  0.6808E+01  0.4471E+02
   5.220  0.7172E+01  0.4478E+02
   5.230  0.7481E+01  0.4486E+02
   5.240  0.7775E+01  0.4493E+02
   5.250  0.7967E+01  0.4501E+02
   5.260  0.8049E+01  0.4509E+02
   5.270  0.8126E+01  0.4517E+02
   5.280  0.8204E+01  0.4525E+02
   5.290  0.1247E+02  0.4535E+02
   5.300  0.1328E+02  0.4549E+02
   5.310  0.1047E+02  0.4560E+02
   5.320  0.9363E+01  0.4570E+02
   5.330  0.8948E+01  0.4579E+02
   5.340  0.8685E+01  0.4588E+02
   5.350  0.8439E+01  0.4597E+02
   5.360  0.7641E+01  0.4605E+02
   5.370  0.7720E+01  0.4613E+02
   5.380  0.7799E+01  0.4621E+02
   5.390  0.7882E+01  0.4629E+02
   5.400  0.7957E+01  0.4637E+02
   5.410  0.8014E+01  0.4645E+02
   5.420  0.1555E+02  0.4654E+02
   5.430  0.1258E+02  0.4668E+02
   5.440  0.1843E+02  0.4683E+02
   5.450  0.3209E+02  0.4711E+02
   5.460  0.1753E+02  0.4737E+02
   5.470  0.1606E+02  0.4753E+02
   5.480  0.1455E+02  0.4769E+02
   5.490  0.1250E+02  0.4783E+02
   5.500  0.1148E+02  0.4796E+02
   5.510  0.1318E+02  0.4808E+02
   5.520  0.1410E+02  0.4823E+02
   5.530  0.1852E+02  0.4839E+02
   5.540  0.1407E+02  0.4862E+02
   5.550  0.1108E+02  0.4874E+02
   5.560  0.1148E+02  0.4886E+02
   5.570  0.1161E+02  0.4897E+02
   5.580  0.1134E+02  0.4909E+02
   5.590  0.1049E+02  0.4920E+02
   5.600  0.1012E+02  0.4930E+02
   5.610  0.1156E+02  0.4940E+02
   5.620  0.1091E+02  0.4952E+02
   5.630  0.1104E+02  0.4963E+02
   5.640  0.1410E+02  0.4978E+02
   5.650  0.1063E+02  0.4990E+02
   5.660  0.1043E+02  0.5001E+02
   5.670  0.1066E+02  0.5012E+02
   5.680  0.1108E+02  0.5023E+02
   5.690  0.1180E+02  0.5034E+02
   5.700  0.1224E+02  0.5046E+02
   5.710  0.1158E+02  0.5058E+02
   5.720  0.1303E+02  0.5073E+02
   5.730  0.1295E+02  0.5087E+02
   5.740  0.1312E+02  0.5100E+02
   5.750  0.1266E+02  0.5113E+02
   5.760  0.1220E+02  0.5125E+02
   5.770  0.9087E+01  0.5137E+02
   5.780  0.7103E+01  0.5145E+02
   5.790  0.5639E+01  0.5151E+02
   5.800  0.4481E+01  0.5156E+02
   5.810  0.4568E+01  0.5161E+02
   5.820  0.4741E+01  0.5166E+02
   5.830  0.4693E+01  0.5170E+02
   5.840  0.4690E+01  0.5175E+02
   5.850  0.5156E+01  0.5180E+02
   5.860  0.5045E+01  0.5185E+02
   5.870  0.4486E+01  0.5190E+02
   5.880  0.4429E+01  0.5194E+02
   5.890  0.4349E+01  0.5198E+02
   5.900  0.4204E+01  0.5203E+02
   5.910  0.3444E+01  0.5207E+02
   5.920  0.2867E+01  0.5210E+02
   5.930  0.2636E+01  0.5213E+02
   5.940  0.2511E+01  0.5215E+02
   5.950  0.2517E+01  0.5218E+02
   5.960  0.2507E+01  0.5220E+02
   5.970  0.2491E+01  0.5223E+02
   5.980  0.2640E+01  0.5226E+02
   5.990  0.2778E+01  0.5228E+02
   6.000  0.3051E+01  0.5231E+02
   6.010  0.3467E+01  0.5234E+02
   6.020  0.3748E+01  0.5238E+02
   6.030  0.4062E+01  0.5242E+02
