#  E (eV)   dos(E)     Int dos(E) EFermi =    9.589 eV
   5.000  0.6918E+01  0.5874E+02
   5.010  0.7103E+01  0.5881E+02
   5.020  0.7150E+01  0.5888E+02
   5.030  0.5847E+01  0.5895E+02
   5.040  0.5453E+01  0.5901E+02
   5.050  0.5433E+01  0.5906E+02
   5.060  0.5436E+01  0.5911E+02
   5.070  0.5446E+01  0.5917E+02
   5.080  0.5438E+01  0.5922E+02
   5.090  0.5385E+01  0.5928E+02
   5.100  0.5296E+01  0.5933E+02
   5.110  0.5212E+01  0.5938E+02
   5.120  0.5128E+01  0.5943E+02
   5.130  0.5038E+01  0.5949E+02
   5.140  0.4946E+01  0.5954E+02
   5.150  0.4863E+01  0.5958E+02
   5.160  0.4791E+01  0.5963E+02
   5.170  0.4735E+01  0.5968E+02
   5.180  0.4700E+01  0.5973E+02
   5.190  0.4686E+01  0.5977E+02
   5.200  0.4693E+01  0.5982E+02
   5.210  0.4718E+01  0.5987E+02
   5.220  0.4770E+01  0.5992E+02
   5.230  0.4934E+01  0.5996E+02
   5.240  0.5101E+01  0.6001E+02
   5.250  0.5205E+01  0.6007E+02
   5.260  0.5316E+01  0.6012E+02
   5.270  0.5441E+01  0.6017E+02
   5.280  0.5582E+01  0.6023E+02
   5.290  0.5736E+01  0.6028E+02
   5.300  0.5935E+01  0.6034E+02
   5.310  0.6354E+01  0.6040E+02
   5.320  0.6808E+01  0.6047E+02
   5.330  0.7430E+01  0.6054E+02
   5.340  0.7770E+01  0.6062E+02
   5.350  0.7778E+01  0.6069E+02
   5.360  0.7852E+01  0.6077E+02
   5.370  0.7942E+01  0.6085E+02
   5.380  0.7855E+01  0.6093E+02
   5.390  0.7691E+01  0.6101E+02
   5.400  0.7562E+01  0.6108E+02
   5.410  0.7471E+01  0.6116E+02
   5.420  0.7302E+01  0.6123E+02
   5.430  0.7340E+01  0.6131E+02
   5.440  0.7011E+01  0.6138E+02
   5.450  0.6274E+01  0.6145E+02
   5.460  0.6100E+01  0.6151E+02
   5.470  0.5926E+01  0.6157E+02
   5.480  0.5735E+01  0.6163E+02
   5.490  0.5603E+01  0.6168E+02
   5.500  0.5439E+01  0.6174E+02
   5.510  0.5266E+01  0.6179E+02
   5.520  0.5173E+01  0.6185E+02
   5.530  0.5318E+01  0.6190E+02
   5.540  0.5547E+01  0.6195E+02
   5.550  0.5781E+01  0.6201E+02
   5.560  0.5995E+01  0.6207E+02
   5.570  0.6437E+01  0.6213E+02
   5.580  0.7396E+01  0.6220E+02
   5.590  0.8030E+01  0.6228E+02
   5.600  0.8116E+01  0.6236E+02
   5.610  0.8470E+01  0.6244E+02
   5.620  0.9334E+01  0.6253E+02
   5.630  0.1056E+02  0.6263E+02
   5.640  0.1176E+02  0.6274E+02
   5.650  0.1185E+02  0.6286E+02
   5.660  0.1070E+02  0.6297E+02
   5.670  0.1020E+02  0.6308E+02
   5.680  0.9959E+01  0.6318E+02
   5.690  0.9718E+01  0.6328E+02
   5.700  0.9440E+01  0.6337E+02
   5.710  0.9155E+01  0.6346E+02
   5.720  0.8867E+01  0.6355E+02
   5.730  0.7463E+01  0.6364E+02
   5.740  0.7030E+01  0.6371E+02
   5.750  0.6745E+01  0.6378E+02
   5.760  0.6532E+01  0.6384E+02
   5.770  0.6409E+01  0.6391E+02
   5.780  0.6352E+01  0.6397E+02
   5.790  0.6323E+01  0.6403E+02
   5.800  0.6320E+01  0.6410E+02
   5.810  0.6342E+01  0.6416E+02
   5.820  0.6376E+01  0.6422E+02
   5.830  0.6398E+01  0.6429E+02
   5.840  0.6418E+01  0.6435E+02
   5.850  0.6451E+01  0.6442E+02
   5.860  0.6501E+01  0.6448E+02
   5.870  0.6548E+01  0.6455E+02
   5.880  0.6628E+01  0.6461E+02
   5.890  0.6811E+01  0.6468E+02
   5.900  0.7305E+01  0.6475E+02
   5.910  0.7733E+01  0.6483E+02
   5.920  0.7556E+01  0.6490E+02
   5.930  0.7556E+01  0.6498E+02
   5.940  0.7585E+01  0.6506E+02
   5.950  0.7597E+01  0.6513E+02
   5.960  0.7732E+01  0.6521E+02
   5.970  0.7979E+01  0.6529E+02
   5.980  0.8255E+01  0.6537E+02
   5.990  0.8476E+01  0.6545E+02
   6.000  0.8642E+01  0.6554E+02
   6.010  0.9143E+01  0.6563E+02
   6.020  0.1082E+02  0.6573E+02
   6.030  0.1180E+02  0.6584E+02
   6.040  0.1386E+02  0.6597E+02
   6.050  0.1437E+02  0.6611E+02
   6.060  0.1461E+02  0.6625E+02
   6.070  0.1460E+02  0.6640E+02
   6.080  0.1406E+02  0.6654E+02
   6.090  0.1385E+02  0.6668E+02
   6.100  0.1322E+02  0.6682E+02
   6.110  0.1264E+02  0.6695E+02
   6.120  0.1219E+02  0.6707E+02
   6.130  0.1272E+02  0.6720E+02
   6.140  0.1368E+02  0.6733E+02
   6.150  0.1409E+02  0.6747E+02
   6.160  0.1301E+02  0.6760E+02
   6.170  0.1141E+02  0.6773E+02
   6.180  0.1081E+02  0.6784E+02
   6.190  0.1047E+02  0.6794E+02
   6.200  0.1031E+02  0.6805E+02
   6.210  0.1023E+02  0.6815E+02
   6.220  0.9942E+01  0.6825E+02
   6.230  0.9834E+01  0.6835E+02
   6.240  0.9844E+01  0.6845E+02
   6.250  0.1032E+02  0.6855E+02
   6.260  0.1120E+02  0.6866E+02
   6.270  0.1217E+02  0.6877E+02
   6.280  0.1313E+02  0.6890E+02
   6.290  0.1411E+02  0.6903E+02
   6.300  0.1631E+02  0.6920E+02
   6.310  0.1181E+02  0.6934E+02
   6.320  0.1079E+02  0.6945E+02
   6.330  0.1116E+02  0.6956E+02
   6.340  0.1252E+02  0.6968E+02
   6.350  0.1822E+02  0.6982E+02
   6.360  0.2089E+02  0.7003E+02
   6.370  0.1814E+02  0.7022E+02
   6.380  0.1679E+02  0.7040E+02
   6.390  0.1617E+02  0.7056E+02
   6.400  0.1496E+02  0.7072E+02
   6.410  0.1384E+02  0.7086E+02
   6.420  0.1366E+02  0.7100E+02
   6.430  0.1253E+02  0.7113E+02
   6.440  0.1154E+02  0.7125E+02
   6.450  0.1102E+02  0.7136E+02
   6.460  0.9969E+01  0.7147E+02
   6.470  0.8674E+01  0.7156E+02
   6.480  0.7829E+01  0.7164E+02
   6.490  0.7509E+01  0.7172E+02
   6.500  0.7224E+01  0.7179E+02
   6.510  0.6922E+01  0.7186E+02
   6.520  0.6631E+01  0.7193E+02
   6.530  0.6346E+01  0.7200E+02
   6.540  0.6215E+01  0.7206E+02
   6.550  0.6206E+01  0.7212E+02
   6.560  0.6024E+01  0.7218E+02
   6.570  0.5906E+01  0.7224E+02
   6.580  0.5853E+01  0.7230E+02
   6.590  0.5850E+01  0.7236E+02
   6.600  0.5879E+01  0.7242E+02
   6.610  0.5946E+01  0.7248E+02
   6.620  0.6105E+01  0.7254E+02
   6.630  0.6317E+01  0.7260E+02
   6.640  0.6641E+01  0.7266E+02
   6.650  0.6997E+01  0.7273E+02
   6.660  0.8071E+01  0.7281E+02
   6.670  0.8613E+01  0.7289E+02
   6.680  0.8674E+01  0.7298E+02
   6.690  0.8523E+01  0.7306E+02
   6.700  0.8622E+01  0.7315E+02
   6.710  0.8804E+01  0.7324E+02
   6.720  0.8880E+01  0.7333E+02
   6.730  0.8610E+01  0.7341E+02
   6.740  0.8217E+01  0.7350E+02
   6.750  0.7848E+01  0.7358E+02
   6.760  0.7495E+01  0.7365E+02
   6.770  0.7144E+01  0.7373E+02
   6.780  0.6749E+01  0.7380E+02
   6.790  0.6500E+01  0.7386E+02
   6.800  0.6547E+01  0.7393E+02
   6.810  0.6817E+01  0.7399E+02
   6.820  0.7231E+01  0.7406E+02
   6.830  0.7611E+01  0.7414E+02
   6.840  0.7057E+01  0.7421E+02
   6.850  0.6700E+01  0.7428E+02
   6.860  0.7205E+01  0.7435E+02
   6.870  0.7801E+01  0.7443E+02
   6.880  0.8575E+01  0.7451E+02
   6.890  0.9752E+01  0.7460E+02
   6.900  0.1028E+02  0.7470E+02
   6.910  0.1056E+02  0.7480E+02
   6.920  0.1073E+02  0.7491E+02
   6.930  0.1075E+02  0.7502E+02
   6.940  0.1053E+02  0.7512E+02
   6.950  0.1027E+02  0.7523E+02
   6.960  0.1016E+02  0.7533E+02
   6.970  0.1005E+02  0.7543E+02
   6.980  0.9985E+01  0.7553E+02
   6.990  0.9653E+01  0.7563E+02
   7.000  0.1007E+02  0.7573E+02
   7.010  0.1139E+02  0.7584E+02
   7.020  0.8261E+01  0.7593E+02
   7.030  0.8355E+01  0.7601E+02
   7.040  0.8185E+01  0.7610E+02
   7.050  0.8073E+01  0.7618E+02
   7.060  0.7973E+01  0.7626E+02
   7.070  0.7879E+01  0.7634E+02
   7.080  0.7792E+01  0.7641E+02
   7.090  0.7714E+01  0.7649E+02
   7.100  0.7655E+01  0.7657E+02
   7.110  0.7617E+01  0.7665E+02
   7.120  0.7670E+01  0.7672E+02
   7.130  0.7950E+01  0.7680E+02
   7.140  0.8148E+01  0.7688E+02
   7.150  0.8278E+01  0.7696E+02
   7.160  0.8255E+01  0.7704E+02
   7.170  0.8205E+01  0.7713E+02
   7.180  0.8183E+01  0.7721E+02
   7.190  0.8186E+01  0.7729E+02
   7.200  0.8190E+01  0.7737E+02
   7.210  0.8297E+01  0.7745E+02
   7.220  0.1266E+02  0.7755E+02
   7.230  0.1080E+02  0.7768E+02
   7.240  0.8352E+01  0.7777E+02
   7.250  0.8203E+01  0.7785E+02
   7.260  0.8099E+01  0.7793E+02
   7.270  0.8429E+01  0.7802E+02
   7.280  0.8416E+01  0.7810E+02
   7.290  0.8208E+01  0.7818E+02
   7.300  0.7947E+01  0.7826E+02
   7.310  0.7735E+01  0.7834E+02
   7.320  0.7533E+01  0.7842E+02
   7.330  0.7265E+01  0.7849E+02
   7.340  0.7101E+01  0.7856E+02
   7.350  0.7136E+01  0.7864E+02
   7.360  0.7199E+01  0.7871E+02
   7.370  0.7441E+01  0.7878E+02
   7.380  0.8013E+01  0.7886E+02
   7.390  0.8481E+01  0.7894E+02
   7.400  0.8908E+01  0.7903E+02
   7.410  0.9852E+01  0.7912E+02
   7.420  0.1137E+02  0.7923E+02
   7.430  0.1195E+02  0.7934E+02
   7.440  0.1271E+02  0.7947E+02
   7.450  0.1328E+02  0.7960E+02
   7.460  0.1431E+02  0.7973E+02
   7.470  0.1518E+02  0.7988E+02
   7.480  0.1599E+02  0.8004E+02
   7.490  0.1680E+02  0.8020E+02
   7.500  0.1487E+02  0.8036E+02
   7.510  0.1733E+02  0.8052E+02
   7.520  0.1673E+02  0.8070E+02
   7.530  0.1644E+02  0.8086E+02
   7.540  0.1653E+02  0.8103E+02
   7.550  0.1528E+02  0.8119E+02
   7.560  0.1407E+02  0.8134E+02
   7.570  0.1348E+02  0.8147E+02
   7.580  0.1341E+02  0.8161E+02
   7.590  0.1401E+02  0.8174E+02
   7.600  0.1534E+02  0.8189E+02
   7.610  0.1675E+02  0.8205E+02
   7.620  0.1605E+02  0.8222E+02
   7.630  0.1498E+02  0.8237E+02
   7.640  0.1514E+02  0.8252E+02
   7.650  0.1435E+02  0.8267E+02
   7.660  0.1314E+02  0.8281E+02
   7.670  0.1258E+02  0.8293E+02
   7.680  0.1217E+02  0.8306E+02
   7.690  0.1184E+02  0.8318E+02
   7.700  0.1165E+02  0.8330E+02
   7.710  0.1177E+02  0.8341E+02
   7.720  0.1197E+02  0.8353E+02
   7.730  0.1221E+02  0.8365E+02
   7.740  0.1240E+02  0.8378E+02
   7.750  0.1251E+02  0.8390E+02
   7.760  0.1275E+02  0.8403E+02
   7.770  0.1308E+02  0.8415E+02
   7.780  0.1281E+02  0.8429E+02
   7.790  0.1248E+02  0.8441E+02
   7.800  0.1316E+02  0.8454E+02
   7.810  0.1379E+02  0.8467E+02
   7.820  0.1457E+02  0.8482E+02
   7.830  0.1518E+02  0.8496E+02
   7.840  0.1654E+02  0.8512E+02
   7.850  0.1863E+02  0.8530E+02
   7.860  0.1563E+02  0.8547E+02
   7.870  0.1420E+02  0.8561E+02
   7.880  0.1362E+02  0.8575E+02
   7.890  0.1285E+02  0.8589E+02
   7.900  0.1080E+02  0.8600E+02
   7.910  0.9971E+01  0.8611E+02
   7.920  0.9678E+01  0.8621E+02
   7.930  0.9677E+01  0.8630E+02
   7.940  0.9687E+01  0.8640E+02
   7.950  0.1001E+02  0.8650E+02
   7.960  0.1049E+02  0.8660E+02
   7.970  0.1050E+02  0.8671E+02
   7.980  0.1054E+02  0.8681E+02
   7.990  0.1050E+02  0.8692E+02
   8.000  0.1030E+02  0.8702E+02
   8.010  0.1016E+02  0.8712E+02
   8.020  0.1024E+02  0.8722E+02
   8.030  0.1019E+02  0.8733E+02
   8.040  0.1013E+02  0.8743E+02
   8.050  0.9870E+01  0.8753E+02
   8.060  0.9581E+01  0.8763E+02
   8.070  0.9210E+01  0.8772E+02
   8.080  0.8909E+01  0.8781E+02
   8.090  0.8963E+01  0.8790E+02
   8.100  0.9180E+01  0.8799E+02
   8.110  0.9602E+01  0.8808E+02
   8.120  0.1030E+02  0.8818E+02
   8.130  0.1067E+02  0.8829E+02
   8.140  0.1068E+02  0.8839E+02
   8.150  0.1054E+02  0.8850E+02
   8.160  0.1031E+02  0.8861E+02
   8.170  0.1032E+02  0.8871E+02
   8.180  0.1035E+02  0.8881E+02
   8.190  0.1022E+02  0.8891E+02
   8.200  0.1039E+02  0.8902E+02
   8.210  0.1111E+02  0.8912E+02
   8.220  0.1213E+02  0.8924E+02
   8.230  0.1255E+02  0.8936E+02
   8.240  0.1241E+02  0.8949E+02
   8.250  0.1286E+02  0.8962E+02
   8.260  0.1341E+02  0.8975E+02
   8.270  0.1369E+02  0.8988E+02
   8.280  0.1389E+02  0.9002E+02
   8.290  0.1474E+02  0.9016E+02
   8.300  0.1364E+02  0.9031E+02
   8.310  0.1402E+02  0.9044E+02
   8.320  0.1457E+02  0.9059E+02
   8.330  0.1532E+02  0.9074E+02
   8.340  0.1560E+02  0.9089E+02
   8.350  0.1509E+02  0.9104E+02
   8.360  0.1535E+02  0.9120E+02
   8.370  0.1580E+02  0.9135E+02
   8.380  0.1585E+02  0.9151E+02
   8.390  0.1621E+02  0.9167E+02
   8.400  0.1773E+02  0.9184E+02
   8.410  0.1926E+02  0.9202E+02
   8.420  0.2014E+02  0.9222E+02
   8.430  0.1971E+02  0.9242E+02
   8.440  0.1858E+02  0.9261E+02
   8.450  0.1694E+02  0.9279E+02
   8.460  0.1629E+02  0.9296E+02
   8.470  0.1588E+02  0.9312E+02
   8.480  0.1557E+02  0.9327E+02
   8.490  0.1545E+02  0.9343E+02
   8.500  0.1551E+02  0.9358E+02
   8.510  0.1544E+02  0.9374E+02
   8.520  0.1495E+02  0.9389E+02
   8.530  0.1448E+02  0.9404E+02
   8.540  0.1601E+02  0.9419E+02
   8.550  0.2303E+02  0.9438E+02
   8.560  0.2767E+02  0.9464E+02
   8.570  0.2487E+02  0.9490E+02
   8.580  0.2329E+02  0.9514E+02
   8.590  0.2152E+02  0.9537E+02
   8.600  0.2075E+02  0.9558E+02
   8.610  0.2115E+02  0.9579E+02
   8.620  0.2219E+02  0.9600E+02
   8.630  0.2869E+02  0.9626E+02
   8.640  0.4267E+02  0.9661E+02
   8.650  0.3170E+02  0.9696E+02
   8.660  0.2662E+02  0.9725E+02
   8.670  0.2109E+02  0.9749E+02
   8.680  0.2029E+02  0.9770E+02
   8.690  0.1382E+02  0.9786E+02
   8.700  0.1294E+02  0.9800E+02
   8.710  0.1237E+02  0.9812E+02
   8.720  0.1194E+02  0.9824E+02
   8.730  0.1158E+02  0.9836E+02
   8.740  0.1135E+02  0.9848E+02
   8.750  0.1124E+02  0.9859E+02
   8.760  0.1119E+02  0.9870E+02
   8.770  0.1126E+02  0.9881E+02
   8.780  0.1144E+02  0.9893E+02
   8.790  0.1168E+02  0.9904E+02
   8.800  0.1180E+02  0.9916E+02
   8.810  0.1254E+02  0.9928E+02
   8.820  0.1308E+02  0.9941E+02
   8.830  0.1298E+02  0.9954E+02
   8.840  0.1338E+02  0.9967E+02
   8.850  0.1418E+02  0.9981E+02
   8.860  0.1508E+02  0.9995E+02
   8.870  0.1686E+02  0.1001E+03
   8.880  0.1670E+02  0.1003E+03
   8.890  0.1743E+02  0.1005E+03
   8.900  0.1809E+02  0.1006E+03
   8.910  0.1777E+02  0.1008E+03
   8.920  0.1772E+02  0.1010E+03
   8.930  0.1896E+02  0.1012E+03
   8.940  0.1670E+02  0.1014E+03
   8.950  0.1617E+02  0.1015E+03
   8.960  0.1569E+02  0.1017E+03
   8.970  0.1499E+02  0.1018E+03
   8.980  0.1361E+02  0.1020E+03
   8.990  0.1163E+02  0.1021E+03
   9.000  0.1030E+02  0.1022E+03
   9.010  0.9382E+01  0.1023E+03
   9.020  0.8843E+01  0.1024E+03
   9.030  0.8545E+01  0.1025E+03
   9.040  0.8755E+01  0.1026E+03
   9.050  0.8486E+01  0.1027E+03
   9.060  0.8146E+01  0.1027E+03
   9.070  0.7858E+01  0.1028E+03
   9.080  0.7670E+01  0.1029E+03
   9.090  0.7546E+01  0.1030E+03
   9.100  0.7582E+01  0.1031E+03
   9.110  0.7518E+01  0.1031E+03
   9.120  0.7463E+01  0.1032E+03
   9.130  0.7412E+01  0.1033E+03
   9.140  0.7358E+01  0.1034E+03
   9.150  0.7299E+01  0.1034E+03
   9.160  0.7321E+01  0.1035E+03
   9.170  0.7387E+01  0.1036E+03
   9.180  0.7635E+01  0.1036E+03
   9.190  0.7781E+01  0.1037E+03
   9.200  0.7995E+01  0.1038E+03
   9.210  0.8338E+01  0.1039E+03
   9.220  0.9914E+01  0.1040E+03
   9.230  0.1133E+02  0.1041E+03
   9.240  0.1199E+02  0.1042E+03
   9.250  0.1208E+02  0.1043E+03
   9.260  0.9653E+01  0.1044E+03
   9.270  0.7925E+01  0.1045E+03
   9.280  0.7674E+01  0.1046E+03
   9.290  0.7483E+01  0.1047E+03
   9.300  0.7301E+01  0.1047E+03
   9.310  0.7135E+01  0.1048E+03
   9.320  0.5480E+01  0.1049E+03
   9.330  0.5088E+01  0.1049E+03
   9.340  0.4985E+01  0.1050E+03
   9.350  0.4868E+01  0.1050E+03
   9.360  0.4742E+01  0.1051E+03
   9.370  0.4610E+01  0.1051E+03
   9.380  0.4471E+01  0.1052E+03
   9.390  0.4331E+01  0.1052E+03
   9.400  0.4196E+01  0.1053E+03
   9.410  0.4092E+01  0.1053E+03
   9.420  0.4127E+01  0.1053E+03
   9.430  0.4171E+01  0.1054E+03
   9.440  0.4221E+01  0.1054E+03
   9.450  0.4287E+01  0.1055E+03
   9.460  0.4237E+01  0.1055E+03
   9.470  0.4164E+01  0.1055E+03
   9.480  0.4089E+01  0.1056E+03
   9.490  0.4015E+01  0.1056E+03
   9.500  0.3945E+01  0.1057E+03
   9.510  0.3891E+01  0.1057E+03
   9.520  0.3852E+01  0.1057E+03
   9.530  0.3815E+01  0.1058E+03
   9.540  0.3778E+01  0.1058E+03
   9.550  0.3741E+01  0.1059E+03
   9.560  0.3617E+01  0.1059E+03
   9.570  0.3485E+01  0.1059E+03
   9.580  0.3363E+01  0.1060E+03
   9.590  0.3325E+01  0.1060E+03
   9.600  0.3290E+01  0.1060E+03
   9.610  0.3255E+01  0.1061E+03
   9.620  0.3210E+01  0.1061E+03
   9.630  0.3148E+01  0.1061E+03
   9.640  0.3091E+01  0.1062E+03
   9.650  0.3049E+01  0.1062E+03
   9.660  0.3012E+01  0.1062E+03
   9.670  0.2973E+01  0.1063E+03
   9.680  0.2932E+01  0.1063E+03
   9.690  0.2891E+01  0.1063E+03
   9.700  0.2852E+01  0.1063E+03
   9.710  0.2813E+01  0.1064E+03
   9.720  0.2774E+01  0.1064E+03
   9.730  0.2734E+01  0.1064E+03
   9.740  0.2697E+01  0.1065E+03
   9.750  0.2666E+01  0.1065E+03
   9.760  0.2635E+01  0.1065E+03
   9.770  0.2606E+01  0.1065E+03
   9.780  0.2578E+01  0.1066E+03
   9.790  0.2551E+01  0.1066E+03
   9.800  0.2524E+01  0.1066E+03
   9.810  0.2496E+01  0.1066E+03
   9.820  0.2468E+01  0.1067E+03
   9.830  0.2440E+01  0.1067E+03
   9.840  0.2412E+01  0.1067E+03
   9.850  0.2379E+01  0.1067E+03
   9.860  0.2319E+01  0.1068E+03
   9.870  0.2257E+01  0.1068E+03
   9.880  0.2189E+01  0.1068E+03
   9.890  0.2159E+01  0.1068E+03
   9.900  0.2137E+01  0.1068E+03
   9.910  0.2115E+01  0.1069E+03
   9.920  0.2094E+01  0.1069E+03
   9.930  0.2073E+01  0.1069E+03
   9.940  0.2054E+01  0.1069E+03
   9.950  0.2027E+01  0.1069E+03
   9.960  0.2010E+01  0.1070E+03
   9.970  0.2002E+01  0.1070E+03
   9.980  0.1994E+01  0.1070E+03
   9.990  0.1986E+01  0.1070E+03
  10.000  0.1978E+01  0.1070E+03
  10.010  0.1970E+01  0.1071E+03
  10.020  0.1962E+01  0.1071E+03
  10.030  0.1954E+01  0.1071E+03
  10.040  0.1946E+01  0.1071E+03
  10.050  0.1938E+01  0.1071E+03
  10.060  0.1930E+01  0.1072E+03
  10.070  0.1922E+01  0.1072E+03
  10.080  0.1914E+01  0.1072E+03
  10.090  0.1906E+01  0.1072E+03
  10.100  0.1898E+01  0.1072E+03
  10.110  0.1890E+01  0.1073E+03
  10.120  0.1882E+01  0.1073E+03
  10.130  0.1876E+01  0.1073E+03
  10.140  0.1872E+01  0.1073E+03
  10.150  0.1868E+01  0.1073E+03
  10.160  0.1865E+01  0.1074E+03
  10.170  0.1861E+01  0.1074E+03
  10.180  0.1858E+01  0.1074E+03
  10.190  0.1855E+01  0.1074E+03
  10.200  0.1851E+01  0.1074E+03
  10.210  0.1848E+01  0.1074E+03
  10.220  0.1844E+01  0.1075E+03
  10.230  0.1841E+01  0.1075E+03
  10.240  0.1837E+01  0.1075E+03
  10.250  0.1834E+01  0.1075E+03
  10.260  0.1831E+01  0.1075E+03
  10.270  0.1827E+01  0.1076E+03
  10.280  0.1824E+01  0.1076E+03
  10.290  0.1820E+01  0.1076E+03
  10.300  0.1817E+01  0.1076E+03
  10.310  0.1814E+01  0.1076E+03
  10.320  0.1810E+01  0.1076E+03
  10.330  0.1807E+01  0.1077E+03
  10.340  0.1803E+01  0.1077E+03
  10.350  0.1801E+01  0.1077E+03
  10.360  0.1803E+01  0.1077E+03
  10.370  0.1807E+01  0.1077E+03
  10.380  0.1810E+01  0.1078E+03
  10.390  0.1814E+01  0.1078E+03
  10.400  0.1818E+01  0.1078E+03
  10.410  0.1821E+01  0.1078E+03
  10.420  0.1830E+01  0.1078E+03
  10.430  0.1843E+01  0.1078E+03
  10.440  0.1858E+01  0.1079E+03
  10.450  0.1872E+01  0.1079E+03
  10.460  0.1898E+01  0.1079E+03
  10.470  0.1922E+01  0.1079E+03
  10.480  0.1945E+01  0.1079E+03
  10.490  0.1966E+01  0.1080E+03
  10.500  0.1983E+01  0.1080E+03
  10.510  0.2000E+01  0.1080E+03
  10.520  0.2005E+01  0.1080E+03
  10.530  0.2017E+01  0.1080E+03
  10.540  0.2030E+01  0.1081E+03
  10.550  0.2038E+01  0.1081E+03
  10.560  0.2045E+01  0.1081E+03
  10.570  0.2053E+01  0.1081E+03
  10.580  0.2060E+01  0.1081E+03
  10.590  0.2065E+01  0.1082E+03
  10.600  0.2068E+01  0.1082E+03
  10.610  0.2068E+01  0.1082E+03
  10.620  0.2069E+01  0.1082E+03
  10.630  0.2070E+01  0.1082E+03
  10.640  0.2062E+01  0.1083E+03
  10.650  0.2051E+01  0.1083E+03
  10.660  0.2040E+01  0.1083E+03
  10.670  0.2029E+01  0.1083E+03
  10.680  0.2018E+01  0.1083E+03
  10.690  0.2008E+01  0.1084E+03
  10.700  0.2010E+01  0.1084E+03
  10.710  0.2018E+01  0.1084E+03
  10.720  0.2026E+01  0.1084E+03
  10.730  0.2034E+01  0.1084E+03
  10.740  0.2042E+01  0.1085E+03
  10.750  0.2050E+01  0.1085E+03
  10.760  0.2057E+01  0.1085E+03
  10.770  0.2063E+01  0.1085E+03
  10.780  0.2063E+01  0.1086E+03
  10.790  0.2054E+01  0.1086E+03
  10.800  0.2043E+01  0.1086E+03
  10.810  0.2032E+01  0.1086E+03
  10.820  0.2021E+01  0.1086E+03
  10.830  0.2010E+01  0.1087E+03
  10.840  0.1999E+01  0.1087E+03
  10.850  0.1989E+01  0.1087E+03
  10.860  0.1978E+01  0.1087E+03
  10.870  0.1967E+01  0.1087E+03
  10.880  0.1956E+01  0.1088E+03
  10.890  0.1945E+01  0.1088E+03
  10.900  0.1934E+01  0.1088E+03
  10.910  0.1923E+01  0.1088E+03
  10.920  0.1912E+01  0.1088E+03
  10.930  0.1909E+01  0.1089E+03
  10.940  0.1951E+01  0.1089E+03
  10.950  0.2035E+01  0.1089E+03
  10.960  0.2099E+01  0.1089E+03
  10.970  0.2130E+01  0.1089E+03
  10.980  0.2156E+01  0.1090E+03
  10.990  0.2182E+01  0.1090E+03
  11.000  0.2205E+01  0.1090E+03
  11.010  0.2227E+01  0.1090E+03
  11.020  0.2268E+01  0.1090E+03
  11.030  0.2324E+01  0.1091E+03
