#  E (eV)   dos(E)     Int dos(E) EFermi =   11.191 eV
   5.000  0.6769E+01  0.2263E+02
   5.010  0.6571E+01  0.2270E+02
   5.020  0.6322E+01  0.2276E+02
   5.030  0.6022E+01  0.2282E+02
   5.040  0.6611E+01  0.2289E+02
   5.050  0.7866E+01  0.2296E+02
   5.060  0.6880E+01  0.2303E+02
   5.070  0.3882E+01  0.2310E+02
   5.080  0.3831E+01  0.2314E+02
   5.090  0.3782E+01  0.2318E+02
   5.100  0.3736E+01  0.2322E+02
   5.110  0.3691E+01  0.2326E+02
   5.120  0.3649E+01  0.2329E+02
   5.130  0.3609E+01  0.2333E+02
   5.140  0.3571E+01  0.2336E+02
   5.150  0.3536E+01  0.2340E+02
   5.160  0.3509E+01  0.2344E+02
   5.170  0.3344E+01  0.2347E+02
   5.180  0.3308E+01  0.2350E+02
   5.190  0.3269E+01  0.2354E+02
   5.200  0.3244E+01  0.2357E+02
   5.210  0.3231E+01  0.2360E+02
   5.220  0.7891E+01  0.2365E+02
   5.230  0.3753E+01  0.2370E+02
   5.240  0.4363E+01  0.2379E+02
   5.250  0.4376E+01  0.2383E+02
   5.260  0.4392E+01  0.2387E+02
   5.270  0.4409E+01  0.2392E+02
   5.280  0.4428E+01  0.2396E+02
   5.290  0.4729E+01  0.2401E+02
   5.300  0.4712E+01  0.2405E+02
   5.310  0.4693E+01  0.2410E+02
   5.320  0.4671E+01  0.2415E+02
   5.330  0.4646E+01  0.2419E+02
   5.340  0.4613E+01  0.2424E+02
   5.350  0.4578E+01  0.2429E+02
   5.360  0.4541E+01  0.2433E+02
   5.370  0.4502E+01  0.2438E+02
   5.380  0.4054E+01  0.2442E+02
   5.390  0.3954E+01  0.2446E+02
   5.400  0.3851E+01  0.2450E+02
   5.410  0.3823E+01  0.2454E+02
   5.420  0.3763E+01  0.2458E+02
   5.430  0.3754E+01  0.2461E+02
   5.440  0.3745E+01  0.2465E+02
   5.450  0.3736E+01  0.2469E+02
   5.460  0.3725E+01  0.2473E+02
   5.470  0.3714E+01  0.2476E+02
   5.480  0.3703E+01  0.2480E+02
   5.490  0.3679E+01  0.2484E+02
   5.500  0.3669E+01  0.2487E+02
   5.510  0.3660E+01  0.2491E+02
   5.520  0.3649E+01  0.2495E+02
   5.530  0.3639E+01  0.2498E+02
   5.540  0.3628E+01  0.2502E+02
   5.550  0.3616E+01  0.2506E+02
   5.560  0.3604E+01  0.2509E+02
   5.570  0.3592E+01  0.2513E+02
   5.580  0.3579E+01  0.2516E+02
   5.590  0.3812E+01  0.2521E+02
   5.600  0.4078E+01  0.2524E+02
   5.610  0.6221E+01  0.2529E+02
   5.620  0.4364E+01  0.2534E+02
   5.630  0.4334E+01  0.2538E+02
   5.640  0.4317E+01  0.2543E+02
   5.650  0.4312E+01  0.2547E+02
   5.660  0.4321E+01  0.2551E+02
   5.670  0.4341E+01  0.2556E+02
   5.680  0.4683E+01  0.2561E+02
   5.690  0.4829E+01  0.2566E+02
   5.700  0.5289E+01  0.2571E+02
   5.710  0.5077E+01  0.2576E+02
   5.720  0.4616E+01  0.2581E+02
   5.730  0.4383E+01  0.2586E+02
   5.740  0.4389E+01  0.2590E+02
   5.750  0.4402E+01  0.2594E+02
   5.760  0.4422E+01  0.2599E+02
   5.770  0.4448E+01  0.2603E+02
   5.780  0.4483E+01  0.2608E+02
   5.790  0.4540E+01  0.2612E+02
   5.800  0.4602E+01  0.2617E+02
   5.810  0.4667E+01  0.2621E+02
   5.820  0.4738E+01  0.2626E+02
   5.830  0.8094E+01  0.2633E+02
   5.840  0.4621E+01  0.2637E+02
   5.850  0.4496E+01  0.2642E+02
   5.860  0.4503E+01  0.2646E+02
   5.870  0.4511E+01  0.2651E+02
   5.880  0.4521E+01  0.2656E+02
   5.890  0.4531E+01  0.2660E+02
   5.900  0.4538E+01  0.2665E+02
   5.910  0.4547E+01  0.2669E+02
   5.920  0.4557E+01  0.2674E+02
   5.930  0.4569E+01  0.2678E+02
   5.940  0.4583E+01  0.2683E+02
   5.950  0.4599E+01  0.2687E+02
   5.960  0.4617E+01  0.2692E+02
   5.970  0.4637E+01  0.2697E+02
   5.980  0.4659E+01  0.2701E+02
   5.990  0.4696E+01  0.2706E+02
   6.000  0.4721E+01  0.2711E+02
   6.010  0.4747E+01  0.2715E+02
   6.020  0.4772E+01  0.2720E+02
   6.030  0.4778E+01  0.2725E+02
   6.040  0.4796E+01  0.2730E+02
   6.050  0.4811E+01  0.2735E+02
   6.060  0.4823E+01  0.2739E+02
   6.070  0.5105E+01  0.2744E+02
   6.080  0.5224E+01  0.2749E+02
   6.090  0.5250E+01  0.2755E+02
   6.100  0.5242E+01  0.2760E+02
   6.110  0.5243E+01  0.2765E+02
   6.120  0.5249E+01  0.2770E+02
   6.130  0.5274E+01  0.2776E+02
   6.140  0.5312E+01  0.2781E+02
   6.150  0.5370E+01  0.2786E+02
   6.160  0.5447E+01  0.2792E+02
   6.170  0.5528E+01  0.2797E+02
   6.180  0.5613E+01  0.2803E+02
   6.190  0.5601E+01  0.2808E+02
   6.200  0.5756E+01  0.2814E+02
   6.210  0.5822E+01  0.2820E+02
   6.220  0.5887E+01  0.2826E+02
   6.230  0.6009E+01  0.2832E+02
   6.240  0.6124E+01  0.2838E+02
   6.250  0.6255E+01  0.2844E+02
   6.260  0.6379E+01  0.2850E+02
   6.270  0.6495E+01  0.2857E+02
   6.280  0.6607E+01  0.2863E+02
   6.290  0.6716E+01  0.2870E+02
   6.300  0.6822E+01  0.2877E+02
   6.310  0.6924E+01  0.2883E+02
   6.320  0.7023E+01  0.2890E+02
   6.330  0.7119E+01  0.2898E+02
   6.340  0.8908E+01  0.2906E+02
   6.350  0.8844E+01  0.2915E+02
   6.360  0.7384E+01  0.2923E+02
   6.370  0.7742E+01  0.2930E+02
   6.380  0.8084E+01  0.2938E+02
   6.390  0.9871E+01  0.2947E+02
   6.400  0.1868E+02  0.2963E+02
   6.410  0.1265E+02  0.2979E+02
   6.420  0.1157E+02  0.2991E+02
   6.430  0.1061E+02  0.3002E+02
   6.440  0.9948E+01  0.3013E+02
   6.450  0.1071E+02  0.3024E+02
   6.460  0.1278E+02  0.3037E+02
   6.470  0.9056E+01  0.3049E+02
   6.480  0.6948E+01  0.3057E+02
   6.490  0.4460E+01  0.3063E+02
   6.500  0.4313E+01  0.3068E+02
   6.510  0.3568E+01  0.3073E+02
   6.520  0.3569E+01  0.3076E+02
   6.530  0.3569E+01  0.3080E+02
   6.540  0.3565E+01  0.3083E+02
   6.550  0.3494E+01  0.3087E+02
   6.560  0.3482E+01  0.3090E+02
   6.570  0.3469E+01  0.3094E+02
   6.580  0.3455E+01  0.3097E+02
   6.590  0.3440E+01  0.3101E+02
   6.600  0.3424E+01  0.3104E+02
   6.610  0.3407E+01  0.3108E+02
   6.620  0.3388E+01  0.3111E+02
   6.630  0.3368E+01  0.3114E+02
   6.640  0.3348E+01  0.3118E+02
   6.650  0.3472E+01  0.3121E+02
   6.660  0.3435E+01  0.3125E+02
   6.670  0.3398E+01  0.3128E+02
   6.680  0.3359E+01  0.3131E+02
   6.690  0.3318E+01  0.3135E+02
   6.700  0.3275E+01  0.3138E+02
   6.710  0.3232E+01  0.3141E+02
   6.720  0.3187E+01  0.3144E+02
   6.730  0.3141E+01  0.3148E+02
   6.740  0.3094E+01  0.3151E+02
   6.750  0.2661E+01  0.3155E+02
   6.760  0.2628E+01  0.3157E+02
   6.770  0.2635E+01  0.3160E+02
   6.780  0.2641E+01  0.3163E+02
   6.790  0.2609E+01  0.3165E+02
   6.800  0.2577E+01  0.3168E+02
   6.810  0.2547E+01  0.3170E+02
   6.820  0.2516E+01  0.3173E+02
   6.830  0.2486E+01  0.3175E+02
   6.840  0.2457E+01  0.3178E+02
   6.850  0.2428E+01  0.3180E+02
   6.860  0.2399E+01  0.3183E+02
   6.870  0.2371E+01  0.3185E+02
   6.880  0.2342E+01  0.3188E+02
   6.890  0.2314E+01  0.3190E+02
   6.900  0.2287E+01  0.3192E+02
   6.910  0.2262E+01  0.3194E+02
   6.920  0.2237E+01  0.3197E+02
   6.930  0.2132E+01  0.3199E+02
   6.940  0.2101E+01  0.3201E+02
   6.950  0.2072E+01  0.3203E+02
   6.960  0.2043E+01  0.3205E+02
   6.970  0.2015E+01  0.3207E+02
   6.980  0.1988E+01  0.3209E+02
   6.990  0.1963E+01  0.3211E+02
   7.000  0.1938E+01  0.3213E+02
   7.010  0.1878E+01  0.3215E+02
   7.020  0.1869E+01  0.3217E+02
   7.030  0.1861E+01  0.3219E+02
   7.040  0.1852E+01  0.3221E+02
   7.050  0.1844E+01  0.3222E+02
   7.060  0.1837E+01  0.3224E+02
   7.070  0.1829E+01  0.3226E+02
   7.080  0.1822E+01  0.3228E+02
   7.090  0.1815E+01  0.3230E+02
   7.100  0.1809E+01  0.3232E+02
   7.110  0.1802E+01  0.3233E+02
   7.120  0.1796E+01  0.3235E+02
   7.130  0.1792E+01  0.3237E+02
   7.140  0.1790E+01  0.3239E+02
   7.150  0.1790E+01  0.3241E+02
   7.160  0.1792E+01  0.3242E+02
   7.170  0.1796E+01  0.3244E+02
   7.180  0.1802E+01  0.3246E+02
   7.190  0.1819E+01  0.3248E+02
   7.200  0.1837E+01  0.3250E+02
   7.210  0.1855E+01  0.3251E+02
   7.220  0.1874E+01  0.3253E+02
   7.230  0.1893E+01  0.3255E+02
   7.240  0.1912E+01  0.3257E+02
   7.250  0.1932E+01  0.3259E+02
   7.260  0.1951E+01  0.3261E+02
   7.270  0.1971E+01  0.3263E+02
   7.280  0.1991E+01  0.3265E+02
   7.290  0.2011E+01  0.3267E+02
   7.300  0.2036E+01  0.3269E+02
   7.310  0.2063E+01  0.3271E+02
   7.320  0.2089E+01  0.3273E+02
   7.330  0.2115E+01  0.3275E+02
   7.340  0.2141E+01  0.3277E+02
   7.350  0.2166E+01  0.3279E+02
   7.360  0.2191E+01  0.3282E+02
   7.370  0.2215E+01  0.3284E+02
   7.380  0.2794E+01  0.3287E+02
   7.390  0.2884E+01  0.3290E+02
   7.400  0.2975E+01  0.3293E+02
   7.410  0.3144E+01  0.3296E+02
   7.420  0.3621E+01  0.3300E+02
   7.430  0.4063E+01  0.3303E+02
   7.440  0.4493E+01  0.3308E+02
   7.450  0.5685E+01  0.3314E+02
   7.460  0.5904E+01  0.3320E+02
   7.470  0.6115E+01  0.3326E+02
   7.480  0.6319E+01  0.3332E+02
   7.490  0.6514E+01  0.3338E+02
   7.500  0.4355E+01  0.3349E+02
   7.510  0.3577E+01  0.3353E+02
   7.520  0.2905E+01  0.3356E+02
   7.530  0.2373E+01  0.3358E+02
   7.540  0.2051E+01  0.3361E+02
   7.550  0.1766E+01  0.3362E+02
   7.560  0.1519E+01  0.3364E+02
   7.570  0.1326E+01  0.3365E+02
   7.580  0.1281E+01  0.3367E+02
   7.590  0.1237E+01  0.3368E+02
   7.600  0.1554E+01  0.3371E+02
   7.610  0.1545E+01  0.3372E+02
   7.620  0.1538E+01  0.3374E+02
   7.630  0.1533E+01  0.3375E+02
   7.640  0.1530E+01  0.3377E+02
   7.650  0.1529E+01  0.3378E+02
   7.660  0.1530E+01  0.3380E+02
   7.670  0.1533E+01  0.3382E+02
   7.680  0.1538E+01  0.3383E+02
   7.690  0.1545E+01  0.3385E+02
   7.700  0.3359E+01  0.3388E+02
   7.710  0.3454E+01  0.3391E+02
   7.720  0.3551E+01  0.3394E+02
   7.730  0.3653E+01  0.3398E+02
   7.740  0.3762E+01  0.3402E+02
   7.750  0.3077E+01  0.3407E+02
   7.760  0.3171E+01  0.3410E+02
   7.770  0.3235E+01  0.3413E+02
   7.780  0.3341E+01  0.3416E+02
   7.790  0.4131E+01  0.3421E+02
   7.800  0.4348E+01  0.3425E+02
   7.810  0.4573E+01  0.3430E+02
   7.820  0.4805E+01  0.3434E+02
   7.830  0.4915E+01  0.3440E+02
   7.840  0.4540E+01  0.3445E+02
   7.850  0.4702E+01  0.3449E+02
   7.860  0.4866E+01  0.3454E+02
   7.870  0.4663E+01  0.3459E+02
   7.880  0.4678E+01  0.3464E+02
   7.890  0.4692E+01  0.3468E+02
   7.900  0.4705E+01  0.3473E+02
   7.910  0.4715E+01  0.3478E+02
   7.920  0.4724E+01  0.3482E+02
   7.930  0.4734E+01  0.3487E+02
   7.940  0.4800E+01  0.3492E+02
   7.950  0.4866E+01  0.3497E+02
   7.960  0.4857E+01  0.3502E+02
   7.970  0.4953E+01  0.3507E+02
   7.980  0.5052E+01  0.3512E+02
   7.990  0.5153E+01  0.3517E+02
   8.000  0.5656E+01  0.3522E+02
   8.010  0.5897E+01  0.3528E+02
   8.020  0.5849E+01  0.3534E+02
   8.030  0.5778E+01  0.3540E+02
   8.040  0.5684E+01  0.3545E+02
   8.050  0.5569E+01  0.3551E+02
   8.060  0.5431E+01  0.3557E+02
   8.070  0.4979E+01  0.3562E+02
   8.080  0.4853E+01  0.3567E+02
   8.090  0.4764E+01  0.3572E+02
   8.100  0.4791E+01  0.3577E+02
   8.110  0.4820E+01  0.3582E+02
   8.120  0.4849E+01  0.3586E+02
   8.130  0.6588E+01  0.3593E+02
   8.140  0.6456E+01  0.3599E+02
   8.150  0.6826E+01  0.3606E+02
   8.160  0.7228E+01  0.3613E+02
   8.170  0.8365E+01  0.3620E+02
   8.180  0.7429E+01  0.3628E+02
   8.190  0.6926E+01  0.3635E+02
   8.200  0.6773E+01  0.3642E+02
   8.210  0.7262E+01  0.3649E+02
   8.220  0.7090E+01  0.3656E+02
   8.230  0.6824E+01  0.3663E+02
   8.240  0.6207E+01  0.3670E+02
   8.250  0.5744E+01  0.3676E+02
   8.260  0.5258E+01  0.3681E+02
   8.270  0.6057E+01  0.3687E+02
   8.280  0.6161E+01  0.3693E+02
   8.290  0.6261E+01  0.3700E+02
   8.300  0.6369E+01  0.3707E+02
   8.310  0.6503E+01  0.3713E+02
   8.320  0.6661E+01  0.3720E+02
   8.330  0.6844E+01  0.3726E+02
   8.340  0.7969E+01  0.3734E+02
   8.350  0.8837E+01  0.3742E+02
   8.360  0.9492E+01  0.3752E+02
   8.370  0.9095E+01  0.3761E+02
   8.380  0.8382E+01  0.3770E+02
   8.390  0.7693E+01  0.3779E+02
   8.400  0.7133E+01  0.3786E+02
   8.410  0.6694E+01  0.3793E+02
   8.420  0.6301E+01  0.3800E+02
   8.430  0.5944E+01  0.3806E+02
   8.440  0.5624E+01  0.3812E+02
   8.450  0.5340E+01  0.3817E+02
   8.460  0.4994E+01  0.3822E+02
   8.470  0.4828E+01  0.3827E+02
   8.480  0.4667E+01  0.3832E+02
   8.490  0.4513E+01  0.3837E+02
   8.500  0.4369E+01  0.3841E+02
   8.510  0.4234E+01  0.3845E+02
   8.520  0.4060E+01  0.3849E+02
   8.530  0.3954E+01  0.3853E+02
   8.540  0.3843E+01  0.3857E+02
   8.550  0.3736E+01  0.3861E+02
   8.560  0.3633E+01  0.3865E+02
   8.570  0.3494E+01  0.3869E+02
   8.580  0.3480E+01  0.3872E+02
   8.590  0.3386E+01  0.3876E+02
   8.600  0.3294E+01  0.3879E+02
   8.610  0.3204E+01  0.3882E+02
   8.620  0.3116E+01  0.3885E+02
   8.630  0.3031E+01  0.3888E+02
   8.640  0.2947E+01  0.3891E+02
   8.650  0.2866E+01  0.3894E+02
   8.660  0.2811E+01  0.3897E+02
   8.670  0.2790E+01  0.3900E+02
   8.680  0.2789E+01  0.3903E+02
   8.690  0.2791E+01  0.3906E+02
   8.700  0.2484E+01  0.3909E+02
   8.710  0.2525E+01  0.3912E+02
   8.720  0.2564E+01  0.3914E+02
   8.730  0.2599E+01  0.3917E+02
   8.740  0.2621E+01  0.3919E+02
   8.750  0.2650E+01  0.3922E+02
   8.760  0.2570E+01  0.3925E+02
   8.770  0.2605E+01  0.3927E+02
   8.780  0.2642E+01  0.3930E+02
   8.790  0.2680E+01  0.3932E+02
   8.800  0.2870E+01  0.3935E+02
   8.810  0.2807E+01  0.3938E+02
   8.820  0.2745E+01  0.3941E+02
   8.830  0.2681E+01  0.3944E+02
   8.840  0.2617E+01  0.3946E+02
   8.850  0.2553E+01  0.3949E+02
   8.860  0.2488E+01  0.3951E+02
   8.870  0.2422E+01  0.3954E+02
   8.880  0.2359E+01  0.3956E+02
   8.890  0.2318E+01  0.3958E+02
   8.900  0.2276E+01  0.3961E+02
   8.910  0.2234E+01  0.3963E+02
   8.920  0.2191E+01  0.3965E+02
   8.930  0.2147E+01  0.3967E+02
   8.940  0.2102E+01  0.3970E+02
   8.950  0.2056E+01  0.3972E+02
   8.960  0.2010E+01  0.3974E+02
   8.970  0.1963E+01  0.3976E+02
   8.980  0.1915E+01  0.3978E+02
   8.990  0.1866E+01  0.3979E+02
   9.000  0.1816E+01  0.3981E+02
   9.010  0.1766E+01  0.3983E+02
   9.020  0.2771E+01  0.3986E+02
   9.030  0.2520E+01  0.3989E+02
   9.040  0.1830E+01  0.3991E+02
   9.050  0.1505E+01  0.3993E+02
   9.060  0.1348E+01  0.3995E+02
   9.070  0.1408E+01  0.3996E+02
   9.080  0.1149E+01  0.3998E+02
   9.090  0.9061E+00  0.3999E+02
   9.100  0.6789E+00  0.3999E+02
   9.110  0.0000E+00  0.4000E+02
   9.120  0.0000E+00  0.4000E+02
   9.130  0.0000E+00  0.4000E+02
   9.140  0.0000E+00  0.4000E+02
   9.150  0.0000E+00  0.4000E+02
   9.160  0.0000E+00  0.4000E+02
   9.170  0.0000E+00  0.4000E+02
   9.180  0.0000E+00  0.4000E+02
   9.190  0.0000E+00  0.4000E+02
   9.200  0.0000E+00  0.4000E+02
   9.210  0.0000E+00  0.4000E+02
   9.220  0.0000E+00  0.4000E+02
   9.230  0.0000E+00  0.4000E+02
   9.240  0.0000E+00  0.4000E+02
   9.250  0.0000E+00  0.4000E+02
   9.260  0.0000E+00  0.4000E+02
   9.270  0.0000E+00  0.4000E+02
   9.280  0.0000E+00  0.4000E+02
   9.290  0.0000E+00  0.4000E+02
   9.300  0.0000E+00  0.4000E+02
   9.310  0.0000E+00  0.4000E+02
   9.320  0.0000E+00  0.4000E+02
   9.330  0.0000E+00  0.4000E+02
   9.340  0.0000E+00  0.4000E+02
   9.350  0.0000E+00  0.4000E+02
   9.360  0.0000E+00  0.4000E+02
   9.370  0.0000E+00  0.4000E+02
   9.380  0.0000E+00  0.4000E+02
   9.390  0.0000E+00  0.4000E+02
   9.400  0.0000E+00  0.4000E+02
   9.410  0.0000E+00  0.4000E+02
   9.420  0.0000E+00  0.4000E+02
   9.430  0.0000E+00  0.4000E+02
   9.440  0.0000E+00  0.4000E+02
   9.450  0.0000E+00  0.4000E+02
   9.460  0.0000E+00  0.4000E+02
   9.470  0.0000E+00  0.4000E+02
   9.480  0.0000E+00  0.4000E+02
   9.490  0.0000E+00  0.4000E+02
   9.500  0.0000E+00  0.4000E+02
   9.510  0.0000E+00  0.4000E+02
   9.520  0.0000E+00  0.4000E+02
   9.530  0.0000E+00  0.4000E+02
   9.540  0.0000E+00  0.4000E+02
   9.550  0.0000E+00  0.4000E+02
   9.560  0.0000E+00  0.4000E+02
   9.570  0.0000E+00  0.4000E+02
   9.580  0.0000E+00  0.4000E+02
   9.590  0.0000E+00  0.4000E+02
   9.600  0.0000E+00  0.4000E+02
   9.610  0.0000E+00  0.4000E+02
   9.620  0.0000E+00  0.4000E+02
   9.630  0.0000E+00  0.4000E+02
   9.640  0.0000E+00  0.4000E+02
   9.650  0.0000E+00  0.4000E+02
   9.660  0.0000E+00  0.4000E+02
   9.670  0.0000E+00  0.4000E+02
   9.680  0.0000E+00  0.4000E+02
   9.690  0.0000E+00  0.4000E+02
   9.700  0.0000E+00  0.4000E+02
   9.710  0.0000E+00  0.4000E+02
   9.720  0.0000E+00  0.4000E+02
   9.730  0.0000E+00  0.4000E+02
   9.740  0.0000E+00  0.4000E+02
   9.750  0.0000E+00  0.4000E+02
   9.760  0.0000E+00  0.4000E+02
   9.770  0.0000E+00  0.4000E+02
   9.780  0.0000E+00  0.4000E+02
   9.790  0.0000E+00  0.4000E+02
   9.800  0.0000E+00  0.4000E+02
   9.810  0.0000E+00  0.4000E+02
   9.820  0.0000E+00  0.4000E+02
   9.830  0.0000E+00  0.4000E+02
   9.840  0.0000E+00  0.4000E+02
   9.850  0.0000E+00  0.4000E+02
   9.860  0.0000E+00  0.4000E+02
   9.870  0.0000E+00  0.4000E+02
   9.880  0.0000E+00  0.4000E+02
   9.890  0.0000E+00  0.4000E+02
   9.900  0.0000E+00  0.4000E+02
   9.910  0.0000E+00  0.4000E+02
   9.920  0.0000E+00  0.4000E+02
   9.930  0.0000E+00  0.4000E+02
   9.940  0.0000E+00  0.4000E+02
   9.950  0.0000E+00  0.4000E+02
   9.960  0.0000E+00  0.4000E+02
   9.970  0.0000E+00  0.4000E+02
   9.980  0.0000E+00  0.4000E+02
   9.990  0.0000E+00  0.4000E+02
  10.000  0.0000E+00  0.4000E+02
  10.010  0.0000E+00  0.4000E+02
  10.020  0.0000E+00  0.4000E+02
  10.030  0.0000E+00  0.4000E+02
  10.040  0.0000E+00  0.4000E+02
  10.050  0.0000E+00  0.4000E+02
  10.060  0.0000E+00  0.4000E+02
  10.070  0.0000E+00  0.4000E+02
  10.080  0.0000E+00  0.4000E+02
  10.090  0.0000E+00  0.4000E+02
  10.100  0.0000E+00  0.4000E+02
  10.110  0.0000E+00  0.4000E+02
  10.120  0.0000E+00  0.4000E+02
  10.130  0.0000E+00  0.4000E+02
  10.140  0.0000E+00  0.4000E+02
  10.150  0.0000E+00  0.4000E+02
  10.160  0.0000E+00  0.4000E+02
  10.170  0.0000E+00  0.4000E+02
  10.180  0.0000E+00  0.4000E+02
  10.190  0.0000E+00  0.4000E+02
  10.200  0.0000E+00  0.4000E+02
  10.210  0.0000E+00  0.4000E+02
  10.220  0.0000E+00  0.4000E+02
  10.230  0.0000E+00  0.4000E+02
  10.240  0.0000E+00  0.4000E+02
  10.250  0.0000E+00  0.4000E+02
  10.260  0.0000E+00  0.4000E+02
  10.270  0.0000E+00  0.4000E+02
  10.280  0.0000E+00  0.4000E+02
  10.290  0.0000E+00  0.4000E+02
  10.300  0.0000E+00  0.4000E+02
  10.310  0.0000E+00  0.4000E+02
  10.320  0.0000E+00  0.4000E+02
  10.330  0.0000E+00  0.4000E+02
  10.340  0.0000E+00  0.4000E+02
  10.350  0.0000E+00  0.4000E+02
  10.360  0.0000E+00  0.4000E+02
  10.370  0.0000E+00  0.4000E+02
  10.380  0.0000E+00  0.4000E+02
  10.390  0.0000E+00  0.4000E+02
  10.400  0.0000E+00  0.4000E+02
  10.410  0.0000E+00  0.4000E+02
  10.420  0.0000E+00  0.4000E+02
  10.430  0.0000E+00  0.4000E+02
  10.440  0.0000E+00  0.4000E+02
  10.450  0.0000E+00  0.4000E+02
  10.460  0.0000E+00  0.4000E+02
  10.470  0.0000E+00  0.4000E+02
  10.480  0.0000E+00  0.4000E+02
  10.490  0.0000E+00  0.4000E+02
  10.500  0.0000E+00  0.4000E+02
  10.510  0.0000E+00  0.4000E+02
  10.520  0.0000E+00  0.4000E+02
  10.530  0.0000E+00  0.4000E+02
  10.540  0.0000E+00  0.4000E+02
  10.550  0.0000E+00  0.4000E+02
  10.560  0.0000E+00  0.4000E+02
  10.570  0.0000E+00  0.4000E+02
  10.580  0.0000E+00  0.4000E+02
  10.590  0.0000E+00  0.4000E+02
  10.600  0.0000E+00  0.4000E+02
  10.610  0.0000E+00  0.4000E+02
  10.620  0.0000E+00  0.4000E+02
  10.630  0.0000E+00  0.4000E+02
  10.640  0.0000E+00  0.4000E+02
  10.650  0.0000E+00  0.4000E+02
  10.660  0.0000E+00  0.4000E+02
  10.670  0.0000E+00  0.4000E+02
  10.680  0.0000E+00  0.4000E+02
  10.690  0.0000E+00  0.4000E+02
  10.700  0.0000E+00  0.4000E+02
  10.710  0.0000E+00  0.4000E+02
  10.720  0.0000E+00  0.4000E+02
  10.730  0.0000E+00  0.4000E+02
  10.740  0.0000E+00  0.4000E+02
  10.750  0.0000E+00  0.4000E+02
  10.760  0.0000E+00  0.4000E+02
  10.770  0.0000E+00  0.4000E+02
  10.780  0.0000E+00  0.4000E+02
  10.790  0.0000E+00  0.4000E+02
  10.800  0.0000E+00  0.4000E+02
  10.810  0.0000E+00  0.4000E+02
  10.820  0.0000E+00  0.4000E+02
  10.830  0.0000E+00  0.4000E+02
  10.840  0.0000E+00  0.4000E+02
  10.850  0.0000E+00  0.4000E+02
  10.860  0.0000E+00  0.4000E+02
  10.870  0.0000E+00  0.4000E+02
  10.880  0.0000E+00  0.4000E+02
  10.890  0.0000E+00  0.4000E+02
  10.900  0.0000E+00  0.4000E+02
  10.910  0.0000E+00  0.4000E+02
  10.920  0.0000E+00  0.4000E+02
  10.930  0.0000E+00  0.4000E+02
  10.940  0.0000E+00  0.4000E+02
  10.950  0.0000E+00  0.4000E+02
  10.960  0.0000E+00  0.4000E+02
  10.970  0.0000E+00  0.4000E+02
  10.980  0.0000E+00  0.4000E+02
  10.990  0.0000E+00  0.4000E+02
  11.000  0.0000E+00  0.4000E+02
  11.010  0.0000E+00  0.4000E+02
  11.020  0.0000E+00  0.4000E+02
  11.030  0.0000E+00  0.4000E+02
