#  E (eV)   dos(E)     Int dos(E) EFermi =   12.006 eV
   0.000  0.0000E+00  0.4800E+02
   0.010  0.0000E+00  0.4800E+02
   0.020  0.0000E+00  0.4800E+02
   0.030  0.0000E+00  0.4800E+02
   0.040  0.0000E+00  0.4800E+02
   0.050  0.0000E+00  0.4800E+02
   0.060  0.0000E+00  0.4800E+02
   0.070  0.0000E+00  0.4800E+02
   0.080  0.0000E+00  0.4800E+02
   0.090  0.0000E+00  0.4800E+02
   0.100  0.0000E+00  0.4800E+02
   0.110  0.0000E+00  0.4800E+02
   0.120  0.0000E+00  0.4800E+02
   0.130  0.0000E+00  0.4800E+02
   0.140  0.0000E+00  0.4800E+02
   0.150  0.0000E+00  0.4800E+02
   0.160  0.0000E+00  0.4800E+02
   0.170  0.0000E+00  0.4800E+02
   0.180  0.0000E+00  0.4800E+02
   0.190  0.0000E+00  0.4800E+02
   0.200  0.0000E+00  0.4800E+02
   0.210  0.0000E+00  0.4800E+02
   0.220  0.0000E+00  0.4800E+02
   0.230  0.0000E+00  0.4800E+02
   0.240  0.0000E+00  0.4800E+02
   0.250  0.0000E+00  0.4800E+02
   0.260  0.0000E+00  0.4800E+02
   0.270  0.0000E+00  0.4800E+02
   0.280  0.0000E+00  0.4800E+02
   0.290  0.0000E+00  0.4800E+02
   0.300  0.0000E+00  0.4800E+02
   0.310  0.0000E+00  0.4800E+02
   0.320  0.0000E+00  0.4800E+02
   0.330  0.0000E+00  0.4800E+02
   0.340  0.0000E+00  0.4800E+02
   0.350  0.0000E+00  0.4800E+02
   0.360  0.0000E+00  0.4800E+02
   0.370  0.0000E+00  0.4800E+02
   0.380  0.0000E+00  0.4800E+02
   0.390  0.0000E+00  0.4800E+02
   0.400  0.0000E+00  0.4800E+02
   0.410  0.0000E+00  0.4800E+02
   0.420  0.0000E+00  0.4800E+02
   0.430  0.0000E+00  0.4800E+02
   0.440  0.0000E+00  0.4800E+02
   0.450  0.0000E+00  0.4800E+02
   0.460  0.0000E+00  0.4800E+02
   0.470  0.0000E+00  0.4800E+02
   0.480  0.0000E+00  0.4800E+02
   0.490  0.0000E+00  0.4800E+02
   0.500  0.0000E+00  0.4800E+02
   0.510  0.0000E+00  0.4800E+02
   0.520  0.0000E+00  0.4800E+02
   0.530  0.0000E+00  0.4800E+02
   0.540  0.0000E+00  0.4800E+02
   0.550  0.0000E+00  0.4800E+02
   0.560  0.0000E+00  0.4800E+02
   0.570  0.0000E+00  0.4800E+02
   0.580  0.0000E+00  0.4800E+02
   0.590  0.0000E+00  0.4800E+02
   0.600  0.0000E+00  0.4800E+02
   0.610  0.0000E+00  0.4800E+02
   0.620  0.0000E+00  0.4800E+02
   0.630  0.0000E+00  0.4800E+02
   0.640  0.0000E+00  0.4800E+02
   0.650  0.0000E+00  0.4800E+02
   0.660  0.0000E+00  0.4800E+02
   0.670  0.0000E+00  0.4800E+02
   0.680  0.0000E+00  0.4800E+02
   0.690  0.0000E+00  0.4800E+02
   0.700  0.0000E+00  0.4800E+02
   0.710  0.0000E+00  0.4800E+02
   0.720  0.0000E+00  0.4800E+02
   0.730  0.0000E+00  0.4800E+02
   0.740  0.0000E+00  0.4800E+02
   0.750  0.0000E+00  0.4800E+02
   0.760  0.0000E+00  0.4800E+02
   0.770  0.0000E+00  0.4800E+02
   0.780  0.0000E+00  0.4800E+02
   0.790  0.0000E+00  0.4800E+02
   0.800  0.0000E+00  0.4800E+02
   0.810  0.0000E+00  0.4800E+02
   0.820  0.0000E+00  0.4800E+02
   0.830  0.0000E+00  0.4800E+02
   0.840  0.0000E+00  0.4800E+02
   0.850  0.0000E+00  0.4800E+02
   0.860  0.0000E+00  0.4800E+02
   0.870  0.0000E+00  0.4800E+02
   0.880  0.0000E+00  0.4800E+02
   0.890  0.0000E+00  0.4800E+02
   0.900  0.0000E+00  0.4800E+02
   0.910  0.0000E+00  0.4800E+02
   0.920  0.0000E+00  0.4800E+02
   0.930  0.0000E+00  0.4800E+02
   0.940  0.0000E+00  0.4800E+02
   0.950  0.0000E+00  0.4800E+02
   0.960  0.0000E+00  0.4800E+02
   0.970  0.0000E+00  0.4800E+02
   0.980  0.0000E+00  0.4800E+02
   0.990  0.0000E+00  0.4800E+02
   1.000  0.0000E+00  0.4800E+02
   1.010  0.0000E+00  0.4800E+02
   1.020  0.0000E+00  0.4800E+02
   1.030  0.0000E+00  0.4800E+02
   1.040  0.0000E+00  0.4800E+02
   1.050  0.0000E+00  0.4800E+02
   1.060  0.0000E+00  0.4800E+02
   1.070  0.0000E+00  0.4800E+02
   1.080  0.0000E+00  0.4800E+02
   1.090  0.0000E+00  0.4800E+02
   1.100  0.0000E+00  0.4800E+02
   1.110  0.0000E+00  0.4800E+02
   1.120  0.0000E+00  0.4800E+02
   1.130  0.0000E+00  0.4800E+02
   1.140  0.0000E+00  0.4800E+02
   1.150  0.0000E+00  0.4800E+02
   1.160  0.0000E+00  0.4800E+02
   1.170  0.0000E+00  0.4800E+02
   1.180  0.0000E+00  0.4800E+02
   1.190  0.0000E+00  0.4800E+02
   1.200  0.0000E+00  0.4800E+02
   1.210  0.0000E+00  0.4800E+02
   1.220  0.0000E+00  0.4800E+02
   1.230  0.0000E+00  0.4800E+02
   1.240  0.0000E+00  0.4800E+02
   1.250  0.0000E+00  0.4800E+02
   1.260  0.0000E+00  0.4800E+02
   1.270  0.0000E+00  0.4800E+02
   1.280  0.0000E+00  0.4800E+02
   1.290  0.0000E+00  0.4800E+02
   1.300  0.0000E+00  0.4800E+02
   1.310  0.0000E+00  0.4800E+02
   1.320  0.0000E+00  0.4800E+02
   1.330  0.0000E+00  0.4800E+02
   1.340  0.0000E+00  0.4800E+02
   1.350  0.0000E+00  0.4800E+02
   1.360  0.0000E+00  0.4800E+02
   1.370  0.0000E+00  0.4800E+02
   1.380  0.0000E+00  0.4800E+02
   1.390  0.0000E+00  0.4800E+02
   1.400  0.0000E+00  0.4800E+02
   1.410  0.0000E+00  0.4800E+02
   1.420  0.0000E+00  0.4800E+02
   1.430  0.0000E+00  0.4800E+02
   1.440  0.0000E+00  0.4800E+02
   1.450  0.0000E+00  0.4800E+02
   1.460  0.0000E+00  0.4800E+02
   1.470  0.0000E+00  0.4800E+02
   1.480  0.0000E+00  0.4800E+02
   1.490  0.0000E+00  0.4800E+02
   1.500  0.0000E+00  0.4800E+02
   1.510  0.0000E+00  0.4800E+02
   1.520  0.0000E+00  0.4800E+02
   1.530  0.0000E+00  0.4800E+02
   1.540  0.0000E+00  0.4800E+02
   1.550  0.0000E+00  0.4800E+02
   1.560  0.0000E+00  0.4800E+02
   1.570  0.0000E+00  0.4800E+02
   1.580  0.0000E+00  0.4800E+02
   1.590  0.0000E+00  0.4800E+02
   1.600  0.0000E+00  0.4800E+02
   1.610  0.0000E+00  0.4800E+02
   1.620  0.0000E+00  0.4800E+02
   1.630  0.0000E+00  0.4800E+02
   1.640  0.0000E+00  0.4800E+02
   1.650  0.0000E+00  0.4800E+02
   1.660  0.0000E+00  0.4800E+02
   1.670  0.0000E+00  0.4800E+02
   1.680  0.0000E+00  0.4800E+02
   1.690  0.0000E+00  0.4800E+02
   1.700  0.0000E+00  0.4800E+02
   1.710  0.0000E+00  0.4800E+02
   1.720  0.0000E+00  0.4800E+02
   1.730  0.0000E+00  0.4800E+02
   1.740  0.0000E+00  0.4800E+02
   1.750  0.0000E+00  0.4800E+02
   1.760  0.0000E+00  0.4800E+02
   1.770  0.0000E+00  0.4800E+02
   1.780  0.0000E+00  0.4800E+02
   1.790  0.0000E+00  0.4800E+02
   1.800  0.0000E+00  0.4800E+02
   1.810  0.0000E+00  0.4800E+02
   1.820  0.0000E+00  0.4800E+02
   1.830  0.0000E+00  0.4800E+02
   1.840  0.0000E+00  0.4800E+02
   1.850  0.0000E+00  0.4800E+02
   1.860  0.0000E+00  0.4800E+02
   1.870  0.0000E+00  0.4800E+02
   1.880  0.0000E+00  0.4800E+02
   1.890  0.0000E+00  0.4800E+02
   1.900  0.0000E+00  0.4800E+02
   1.910  0.0000E+00  0.4800E+02
   1.920  0.0000E+00  0.4800E+02
   1.930  0.0000E+00  0.4800E+02
   1.940  0.0000E+00  0.4800E+02
   1.950  0.0000E+00  0.4800E+02
   1.960  0.0000E+00  0.4800E+02
   1.970  0.0000E+00  0.4800E+02
   1.980  0.0000E+00  0.4800E+02
   1.990  0.0000E+00  0.4800E+02
   2.000  0.0000E+00  0.4800E+02
   2.010  0.0000E+00  0.4800E+02
   2.020  0.0000E+00  0.4800E+02
   2.030  0.0000E+00  0.4800E+02
   2.040  0.0000E+00  0.4800E+02
   2.050  0.0000E+00  0.4800E+02
   2.060  0.0000E+00  0.4800E+02
   2.070  0.0000E+00  0.4800E+02
   2.080  0.0000E+00  0.4800E+02
   2.090  0.0000E+00  0.4800E+02
   2.100  0.0000E+00  0.4800E+02
   2.110  0.0000E+00  0.4800E+02
   2.120  0.0000E+00  0.4800E+02
   2.130  0.0000E+00  0.4800E+02
   2.140  0.0000E+00  0.4800E+02
   2.150  0.0000E+00  0.4800E+02
   2.160  0.0000E+00  0.4800E+02
   2.170  0.0000E+00  0.4800E+02
   2.180  0.0000E+00  0.4800E+02
   2.190  0.0000E+00  0.4800E+02
   2.200  0.0000E+00  0.4800E+02
   2.210  0.0000E+00  0.4800E+02
   2.220  0.0000E+00  0.4800E+02
   2.230  0.0000E+00  0.4800E+02
   2.240  0.0000E+00  0.4800E+02
   2.250  0.0000E+00  0.4800E+02
   2.260  0.0000E+00  0.4800E+02
   2.270  0.0000E+00  0.4800E+02
   2.280  0.0000E+00  0.4800E+02
   2.290  0.0000E+00  0.4800E+02
   2.300  0.0000E+00  0.4800E+02
   2.310  0.0000E+00  0.4800E+02
   2.320  0.0000E+00  0.4800E+02
   2.330  0.0000E+00  0.4800E+02
   2.340  0.0000E+00  0.4800E+02
   2.350  0.0000E+00  0.4800E+02
   2.360  0.0000E+00  0.4800E+02
   2.370  0.0000E+00  0.4800E+02
   2.380  0.0000E+00  0.4800E+02
   2.390  0.0000E+00  0.4800E+02
   2.400  0.0000E+00  0.4800E+02
   2.410  0.0000E+00  0.4800E+02
   2.420  0.0000E+00  0.4800E+02
   2.430  0.0000E+00  0.4800E+02
   2.440  0.0000E+00  0.4800E+02
   2.450  0.0000E+00  0.4800E+02
   2.460  0.0000E+00  0.4800E+02
   2.470  0.0000E+00  0.4800E+02
   2.480  0.0000E+00  0.4800E+02
   2.490  0.0000E+00  0.4800E+02
   2.500  0.0000E+00  0.4800E+02
   2.510  0.0000E+00  0.4800E+02
   2.520  0.0000E+00  0.4800E+02
   2.530  0.0000E+00  0.4800E+02
   2.540  0.0000E+00  0.4800E+02
   2.550  0.0000E+00  0.4800E+02
   2.560  0.0000E+00  0.4800E+02
   2.570  0.0000E+00  0.4800E+02
   2.580  0.0000E+00  0.4800E+02
   2.590  0.0000E+00  0.4800E+02
   2.600  0.0000E+00  0.4800E+02
   2.610  0.0000E+00  0.4800E+02
   2.620  0.0000E+00  0.4800E+02
   2.630  0.0000E+00  0.4800E+02
   2.640  0.0000E+00  0.4800E+02
   2.650  0.0000E+00  0.4800E+02
   2.660  0.0000E+00  0.4800E+02
   2.670  0.0000E+00  0.4800E+02
   2.680  0.0000E+00  0.4800E+02
   2.690  0.0000E+00  0.4800E+02
   2.700  0.0000E+00  0.4800E+02
   2.710  0.0000E+00  0.4800E+02
   2.720  0.0000E+00  0.4800E+02
   2.730  0.0000E+00  0.4800E+02
   2.740  0.0000E+00  0.4800E+02
   2.750  0.0000E+00  0.4800E+02
   2.760  0.0000E+00  0.4800E+02
   2.770  0.0000E+00  0.4800E+02
   2.780  0.0000E+00  0.4800E+02
   2.790  0.0000E+00  0.4800E+02
   2.800  0.0000E+00  0.4800E+02
   2.810  0.0000E+00  0.4800E+02
   2.820  0.0000E+00  0.4800E+02
   2.830  0.0000E+00  0.4800E+02
   2.840  0.0000E+00  0.4800E+02
   2.850  0.0000E+00  0.4800E+02
   2.860  0.0000E+00  0.4800E+02
   2.870  0.0000E+00  0.4800E+02
   2.880  0.0000E+00  0.4800E+02
   2.890  0.0000E+00  0.4800E+02
   2.900  0.0000E+00  0.4800E+02
   2.910  0.0000E+00  0.4800E+02
   2.920  0.0000E+00  0.4800E+02
   2.930  0.0000E+00  0.4800E+02
   2.940  0.0000E+00  0.4800E+02
   2.950  0.0000E+00  0.4800E+02
   2.960  0.0000E+00  0.4800E+02
   2.970  0.0000E+00  0.4800E+02
   2.980  0.0000E+00  0.4800E+02
   2.990  0.0000E+00  0.4800E+02
   3.000  0.0000E+00  0.4800E+02
   3.010  0.0000E+00  0.4800E+02
   3.020  0.0000E+00  0.4800E+02
   3.030  0.0000E+00  0.4800E+02
   3.040  0.0000E+00  0.4800E+02
   3.050  0.0000E+00  0.4800E+02
   3.060  0.0000E+00  0.4800E+02
   3.070  0.0000E+00  0.4800E+02
   3.080  0.0000E+00  0.4800E+02
   3.090  0.0000E+00  0.4800E+02
   3.100  0.0000E+00  0.4800E+02
   3.110  0.0000E+00  0.4800E+02
   3.120  0.0000E+00  0.4800E+02
   3.130  0.0000E+00  0.4800E+02
   3.140  0.0000E+00  0.4800E+02
   3.150  0.0000E+00  0.4800E+02
   3.160  0.0000E+00  0.4800E+02
   3.170  0.0000E+00  0.4800E+02
   3.180  0.0000E+00  0.4800E+02
   3.190  0.0000E+00  0.4800E+02
   3.200  0.0000E+00  0.4800E+02
   3.210  0.0000E+00  0.4800E+02
   3.220  0.0000E+00  0.4800E+02
   3.230  0.0000E+00  0.4800E+02
   3.240  0.0000E+00  0.4800E+02
   3.250  0.0000E+00  0.4800E+02
   3.260  0.0000E+00  0.4800E+02
   3.270  0.0000E+00  0.4800E+02
   3.280  0.0000E+00  0.4800E+02
   3.290  0.0000E+00  0.4800E+02
   3.300  0.0000E+00  0.4800E+02
   3.310  0.0000E+00  0.4800E+02
   3.320  0.0000E+00  0.4800E+02
   3.330  0.0000E+00  0.4800E+02
   3.340  0.0000E+00  0.4800E+02
   3.350  0.0000E+00  0.4800E+02
   3.360  0.0000E+00  0.4800E+02
   3.370  0.0000E+00  0.4800E+02
   3.380  0.0000E+00  0.4800E+02
   3.390  0.0000E+00  0.4800E+02
   3.400  0.0000E+00  0.4800E+02
   3.410  0.0000E+00  0.4800E+02
   3.420  0.0000E+00  0.4800E+02
   3.430  0.0000E+00  0.4800E+02
   3.440  0.0000E+00  0.4800E+02
   3.450  0.0000E+00  0.4800E+02
   3.460  0.0000E+00  0.4800E+02
   3.470  0.0000E+00  0.4800E+02
   3.480  0.0000E+00  0.4800E+02
   3.490  0.0000E+00  0.4800E+02
   3.500  0.0000E+00  0.4800E+02
   3.510  0.0000E+00  0.4800E+02
   3.520  0.0000E+00  0.4800E+02
   3.530  0.0000E+00  0.4800E+02
   3.540  0.0000E+00  0.4800E+02
   3.550  0.0000E+00  0.4800E+02
   3.560  0.0000E+00  0.4800E+02
   3.570  0.0000E+00  0.4800E+02
   3.580  0.0000E+00  0.4800E+02
   3.590  0.0000E+00  0.4800E+02
   3.600  0.0000E+00  0.4800E+02
   3.610  0.0000E+00  0.4800E+02
   3.620  0.0000E+00  0.4800E+02
   3.630  0.0000E+00  0.4800E+02
   3.640  0.0000E+00  0.4800E+02
   3.650  0.0000E+00  0.4800E+02
   3.660  0.0000E+00  0.4800E+02
   3.670  0.0000E+00  0.4800E+02
   3.680  0.0000E+00  0.4800E+02
   3.690  0.0000E+00  0.4800E+02
   3.700  0.0000E+00  0.4800E+02
   3.710  0.0000E+00  0.4800E+02
   3.720  0.0000E+00  0.4800E+02
   3.730  0.0000E+00  0.4800E+02
   3.740  0.0000E+00  0.4800E+02
   3.750  0.0000E+00  0.4800E+02
   3.760  0.0000E+00  0.4800E+02
   3.770  0.0000E+00  0.4800E+02
   3.780  0.0000E+00  0.4800E+02
   3.790  0.0000E+00  0.4800E+02
   3.800  0.0000E+00  0.4800E+02
   3.810  0.0000E+00  0.4800E+02
   3.820  0.0000E+00  0.4800E+02
   3.830  0.0000E+00  0.4800E+02
   3.840  0.0000E+00  0.4800E+02
   3.850  0.0000E+00  0.4800E+02
   3.860  0.0000E+00  0.4800E+02
   3.870  0.0000E+00  0.4800E+02
   3.880  0.0000E+00  0.4800E+02
   3.890  0.0000E+00  0.4800E+02
   3.900  0.0000E+00  0.4800E+02
   3.910  0.0000E+00  0.4800E+02
   3.920  0.0000E+00  0.4800E+02
   3.930  0.0000E+00  0.4800E+02
   3.940  0.0000E+00  0.4800E+02
   3.950  0.0000E+00  0.4800E+02
   3.960  0.0000E+00  0.4800E+02
   3.970  0.0000E+00  0.4800E+02
   3.980  0.0000E+00  0.4800E+02
   3.990  0.0000E+00  0.4800E+02
   4.000  0.0000E+00  0.4800E+02
   4.010  0.0000E+00  0.4800E+02
   4.020  0.0000E+00  0.4800E+02
   4.030  0.0000E+00  0.4800E+02
   4.040  0.0000E+00  0.4800E+02
   4.050  0.0000E+00  0.4800E+02
   4.060  0.0000E+00  0.4800E+02
   4.070  0.0000E+00  0.4800E+02
   4.080  0.0000E+00  0.4800E+02
   4.090  0.0000E+00  0.4800E+02
   4.100  0.0000E+00  0.4800E+02
   4.110  0.0000E+00  0.4800E+02
   4.120  0.0000E+00  0.4800E+02
   4.130  0.0000E+00  0.4800E+02
   4.140  0.0000E+00  0.4800E+02
   4.150  0.0000E+00  0.4800E+02
   4.160  0.0000E+00  0.4800E+02
   4.170  0.0000E+00  0.4800E+02
   4.180  0.0000E+00  0.4800E+02
   4.190  0.0000E+00  0.4800E+02
   4.200  0.0000E+00  0.4800E+02
   4.210  0.0000E+00  0.4800E+02
   4.220  0.0000E+00  0.4800E+02
   4.230  0.0000E+00  0.4800E+02
   4.240  0.0000E+00  0.4800E+02
   4.250  0.0000E+00  0.4800E+02
   4.260  0.0000E+00  0.4800E+02
   4.270  0.0000E+00  0.4800E+02
   4.280  0.0000E+00  0.4800E+02
   4.290  0.0000E+00  0.4800E+02
   4.300  0.0000E+00  0.4800E+02
   4.310  0.0000E+00  0.4800E+02
   4.320  0.0000E+00  0.4800E+02
   4.330  0.0000E+00  0.4800E+02
   4.340  0.0000E+00  0.4800E+02
   4.350  0.1768E+01  0.4801E+02
   4.360  0.1349E+01  0.4802E+02
   4.370  0.7660E+00  0.4807E+02
   4.380  0.7884E+00  0.4808E+02
   4.390  0.8109E+00  0.4808E+02
   4.400  0.8334E+00  0.4809E+02
   4.410  0.8558E+00  0.4810E+02
   4.420  0.8783E+00  0.4811E+02
   4.430  0.9007E+00  0.4812E+02
   4.440  0.9232E+00  0.4813E+02
   4.450  0.9456E+00  0.4814E+02
   4.460  0.9681E+00  0.4815E+02
   4.470  0.9906E+00  0.4816E+02
   4.480  0.1013E+01  0.4817E+02
   4.490  0.1035E+01  0.4818E+02
   4.500  0.1058E+01  0.4819E+02
   4.510  0.1080E+01  0.4820E+02
   4.520  0.1103E+01  0.4821E+02
   4.530  0.1125E+01  0.4822E+02
   4.540  0.1148E+01  0.4823E+02
   4.550  0.1170E+01  0.4824E+02
   4.560  0.1193E+01  0.4825E+02
   4.570  0.1215E+01  0.4827E+02
   4.580  0.1238E+01  0.4828E+02
   4.590  0.1260E+01  0.4829E+02
   4.600  0.1282E+01  0.4830E+02
   4.610  0.1305E+01  0.4832E+02
   4.620  0.1327E+01  0.4833E+02
   4.630  0.1350E+01  0.4834E+02
   4.640  0.1372E+01  0.4836E+02
   4.650  0.1395E+01  0.4837E+02
   4.660  0.1417E+01  0.4838E+02
   4.670  0.1431E+01  0.4840E+02
   4.680  0.1433E+01  0.4841E+02
   4.690  0.1438E+01  0.4843E+02
   4.700  0.1438E+01  0.4844E+02
   4.710  0.1437E+01  0.4846E+02
   4.720  0.1407E+01  0.4847E+02
   4.730  0.1421E+01  0.4848E+02
   4.740  0.1435E+01  0.4850E+02
   4.750  0.1450E+01  0.4851E+02
   4.760  0.1464E+01  0.4853E+02
   4.770  0.1479E+01  0.4854E+02
   4.780  0.1493E+01  0.4856E+02
   4.790  0.1507E+01  0.4857E+02
   4.800  0.1522E+01  0.4859E+02
   4.810  0.1536E+01  0.4860E+02
   4.820  0.1551E+01  0.4862E+02
   4.830  0.1565E+01  0.4863E+02
   4.840  0.1579E+01  0.4865E+02
   4.850  0.1594E+01  0.4867E+02
   4.860  0.1608E+01  0.4868E+02
   4.870  0.1623E+01  0.4870E+02
   4.880  0.1637E+01  0.4871E+02
   4.890  0.1652E+01  0.4873E+02
   4.900  0.1666E+01  0.4875E+02
   4.910  0.1680E+01  0.4876E+02
   4.920  0.1695E+01  0.4878E+02
   4.930  0.1709E+01  0.4880E+02
   4.940  0.1724E+01  0.4882E+02
   4.950  0.1738E+01  0.4883E+02
   4.960  0.1753E+01  0.4885E+02
   4.970  0.1767E+01  0.4887E+02
   4.980  0.1782E+01  0.4889E+02
   4.990  0.1796E+01  0.4890E+02
   5.000  0.1810E+01  0.4892E+02
   5.010  0.1825E+01  0.4894E+02
   5.020  0.1839E+01  0.4896E+02
   5.030  0.1854E+01  0.4898E+02
   5.040  0.1868E+01  0.4899E+02
   5.050  0.1882E+01  0.4901E+02
   5.060  0.1896E+01  0.4903E+02
   5.070  0.1910E+01  0.4905E+02
   5.080  0.2045E+01  0.4907E+02
   5.090  0.2137E+01  0.4909E+02
   5.100  0.2255E+01  0.4911E+02
   5.110  0.2345E+01  0.4914E+02
   5.120  0.2573E+01  0.4916E+02
   5.130  0.2688E+01  0.4919E+02
   5.140  0.2737E+01  0.4921E+02
   5.150  0.2787E+01  0.4924E+02
   5.160  0.2837E+01  0.4927E+02
   5.170  0.2886E+01  0.4930E+02
   5.180  0.2936E+01  0.4933E+02
   5.190  0.2985E+01  0.4936E+02
   5.200  0.3035E+01  0.4939E+02
   5.210  0.3085E+01  0.4942E+02
   5.220  0.3134E+01  0.4945E+02
   5.230  0.3184E+01  0.4948E+02
   5.240  0.3234E+01  0.4951E+02
   5.250  0.3283E+01  0.4955E+02
   5.260  0.3333E+01  0.4958E+02
   5.270  0.3382E+01  0.4961E+02
   5.280  0.3432E+01  0.4965E+02
   5.290  0.8978E+01  0.4969E+02
   5.300  0.5907E+01  0.4976E+02
   5.310  0.6263E+01  0.4982E+02
   5.320  0.1126E+02  0.4989E+02
   5.330  0.3020E+01  0.4994E+02
   5.340  0.2997E+01  0.4997E+02
   5.350  0.2974E+01  0.5000E+02
   5.360  0.2952E+01  0.5003E+02
   5.370  0.2926E+01  0.5006E+02
   5.380  0.2899E+01  0.5008E+02
   5.390  0.2874E+01  0.5011E+02
   5.400  0.2848E+01  0.5014E+02
   5.410  0.2821E+01  0.5017E+02
   5.420  0.2795E+01  0.5020E+02
   5.430  0.2768E+01  0.5023E+02
   5.440  0.2739E+01  0.5025E+02
   5.450  0.2713E+01  0.5028E+02
   5.460  0.2684E+01  0.5031E+02
   5.470  0.2655E+01  0.5033E+02
   5.480  0.2625E+01  0.5036E+02
   5.490  0.2594E+01  0.5039E+02
   5.500  0.2561E+01  0.5041E+02
   5.510  0.2525E+01  0.5044E+02
   5.520  0.2489E+01  0.5046E+02
   5.530  0.2457E+01  0.5049E+02
   5.540  0.2424E+01  0.5051E+02
   5.550  0.2391E+01  0.5054E+02
   5.560  0.2358E+01  0.5056E+02
   5.570  0.2325E+01  0.5058E+02
   5.580  0.2292E+01  0.5061E+02
   5.590  0.2260E+01  0.5063E+02
   5.600  0.2227E+01  0.5065E+02
   5.610  0.2146E+01  0.5067E+02
   5.620  0.2087E+01  0.5069E+02
   5.630  0.2037E+01  0.5072E+02
   5.640  0.1979E+01  0.5074E+02
   5.650  0.1957E+01  0.5076E+02
   5.660  0.1912E+01  0.5077E+02
   5.670  0.1874E+01  0.5079E+02
   5.680  0.1833E+01  0.5081E+02
   5.690  0.1781E+01  0.5083E+02
   5.700  0.1768E+01  0.5085E+02
   5.710  0.1756E+01  0.5087E+02
   5.720  0.1743E+01  0.5088E+02
   5.730  0.1731E+01  0.5090E+02
   5.740  0.1718E+01  0.5092E+02
   5.750  0.1705E+01  0.5093E+02
   5.760  0.1693E+01  0.5095E+02
   5.770  0.1680E+01  0.5097E+02
   5.780  0.1667E+01  0.5099E+02
   5.790  0.1655E+01  0.5100E+02
   5.800  0.1642E+01  0.5102E+02
   5.810  0.1630E+01  0.5103E+02
   5.820  0.1617E+01  0.5105E+02
   5.830  0.1605E+01  0.5107E+02
   5.840  0.1593E+01  0.5108E+02
   5.850  0.1582E+01  0.5110E+02
   5.860  0.1572E+01  0.5111E+02
   5.870  0.1561E+01  0.5113E+02
   5.880  0.1551E+01  0.5115E+02
   5.890  0.1541E+01  0.5116E+02
   5.900  0.1532E+01  0.5118E+02
   5.910  0.1523E+01  0.5119E+02
   5.920  0.1514E+01  0.5121E+02
   5.930  0.1505E+01  0.5122E+02
   5.940  0.1497E+01  0.5124E+02
   5.950  0.1489E+01  0.5125E+02
   5.960  0.1482E+01  0.5127E+02
   5.970  0.1475E+01  0.5128E+02
   5.980  0.1469E+01  0.5130E+02
   5.990  0.1463E+01  0.5131E+02
   6.000  0.3239E+01  0.5139E+02
   6.010  0.3375E+01  0.5143E+02
   6.020  0.3512E+01  0.5146E+02
   6.030  0.3649E+01  0.5150E+02
